GCD Test
Bias: 5000.000000
CV_34341_038_PSS_HM_XX_DIODEHALFPSTOP
Date/Time: 4/28/2021 12:24:04 PM
Sensor Name: DIODEHALFPSTOP
Type: P
Annealing Status: Unirradiated
Environment: RT
Tester: Andrew Kent

Time Delay per Ramp Step (s): 0.500

CV Time Delay per Measurement (s) :0.500

AC Voltage (V): 0.500

Current Number of measurements per voltage: 1.000

IV Time Delay per Measurement (s) :0.000


BiasVoltage	LCR_Cp_freqNaN	LCR_Rp_freqNaN	Temperature	Air_Temp	Humidity	Dewpoint	
   -5.0000	2.018E-11	1.370E+9	   22.3598	   22.5113	    6.4001	  -16.0755	
  -10.0000	1.575E-11	1.551E+9	   22.3624	   22.5109	    6.4092	  -16.0586	
  -15.0000	1.371E-11	1.593E+9	   22.3624	   22.5109	    6.4092	  -16.0586	
  -20.0000	1.247E-11	1.662E+9	   22.3624	   22.5069	    6.4026	  -16.0739	
  -25.0000	1.160E-11	1.719E+9	   22.3624	   22.5069	    6.4026	  -16.0739	
  -30.0000	1.099E-11	1.611E+9	   22.3598	   22.5113	    6.4336	  -16.0130	
  -35.0000	1.052E-11	1.709E+9	   22.3598	   22.5110	    6.4367	  -16.0073	
  -40.0000	1.016E-11	1.738E+9	   22.3624	   22.5189	    6.4285	  -16.0169	
  -45.0000	9.849E-12	1.708E+9	   22.3598	   22.5103	    6.4307	  -16.0189	
  -50.0000	9.595E-12	1.724E+9	   22.3624	   22.5137	    6.4269	  -16.0236	
  -55.0000	9.374E-12	1.755E+9	   22.3598	   22.5183	    6.4247	  -16.0244	
  -60.0000	9.183E-12	1.704E+9	   22.3598	   22.5160	    6.4317	  -16.0130	
  -65.0000	9.012E-12	1.789E+9	   22.3598	   22.5190	    6.4231	  -16.0268	
  -70.0000	8.862E-12	1.718E+9	   22.3598	   22.5167	    6.4238	  -16.0273	
  -75.0000	8.722E-12	1.773E+9	   22.3598	   22.5172	    6.4326	  -16.0104	
  -80.0000	8.600E-12	1.786E+9	   22.3598	   22.5186	    6.4279	  -16.0183	
  -85.0000	8.484E-12	1.782E+9	   22.3598	   22.5139	    6.4396	  -15.9999	
  -90.0000	8.383E-12	1.768E+9	   22.3598	   22.5122	    6.4386	  -16.0029	
  -95.0000	8.285E-12	1.750E+9	   22.3598	   22.5179	    6.4355	  -16.0046	
 -100.0000	8.195E-12	1.769E+9	   22.3598	   22.5143	    6.4428	  -15.9937	
 -105.0000	8.104E-12	1.836E+9	   22.3598	   22.5153	    6.4545	  -15.9713	
 -110.0000	8.023E-12	1.841E+9	   22.3598	   22.5175	    6.4472	  -15.9832	
 -115.0000	7.945E-12	1.917E+9	   22.3598	   22.5214	    6.4437	  -15.9868	
 -120.0000	7.875E-12	1.935E+9	   22.3598	   22.5214	    6.4437	  -15.9868	
 -125.0000	7.805E-12	1.900E+9	   22.3598	   22.5141	    6.4589	  -15.9639	
 -130.0000	7.738E-12	1.929E+9	   22.3598	   22.5141	    6.4589	  -15.9639	
 -135.0000	7.674E-12	1.913E+9	   22.3598	   22.5190	    6.4589	  -15.9604	
 -140.0000	7.616E-12	1.953E+9	   22.3598	   22.5141	    6.4592	  -15.9633	
 -145.0000	7.555E-12	2.014E+9	   22.3598	   22.5176	    6.4810	  -15.9203	
 -150.0000	7.508E-12	1.969E+9	   22.3598	   22.5206	    6.4877	  -15.9059	
 -155.0000	7.461E-12	2.021E+9	   22.3598	   22.5162	    6.4873	  -15.9097	
 -160.0000	7.420E-12	1.972E+9	   22.3598	   22.5168	    6.4934	  -15.8982	
 -165.0000	7.376E-12	1.931E+9	   22.3598	   22.5209	    6.5025	  -15.8783	
 -170.0000	7.336E-12	2.028E+9	   22.3598	   22.5209	    6.4861	  -15.9087	
 -175.0000	7.295E-12	2.118E+9	   22.3598	   22.5200	    6.4978	  -15.8877	
 -180.0000	7.257E-12	2.048E+9	   22.3598	   22.5200	    6.4978	  -15.8877	
 -185.0000	7.217E-12	2.067E+9	   22.3598	   22.5200	    6.4953	  -15.8924	
 -190.0000	7.182E-12	1.979E+9	   22.3598	   22.5176	    6.4715	  -15.9379	
 -195.0000	7.143E-12	1.961E+9	   22.3598	   22.5176	    6.4715	  -15.9379	
 -200.0000	7.109E-12	2.097E+9	   22.3598	   22.5185	    6.4760	  -15.9291	
 -205.0000	7.076E-12	1.998E+9	   22.3598	   22.5173	    6.4564	  -15.9663	
 -210.0000	7.043E-12	2.034E+9	   22.3598	   22.5173	    6.4564	  -15.9663	
 -215.0000	7.017E-12	2.121E+9	   22.3598	   22.5175	    6.4466	  -15.9844	
 -220.0000	6.996E-12	2.079E+9	   22.3598	   22.5167	    6.4424	  -15.9926	
 -225.0000	6.981E-12	2.162E+9	   22.3598	   22.5180	    6.4269	  -16.0205	
 -230.0000	6.963E-12	2.014E+9	   22.3598	   22.5148	    6.4330	  -16.0116	
 -235.0000	6.956E-12	2.116E+9	   22.3598	   22.5163	    6.4143	  -16.0453	
 -240.0000	6.947E-12	2.090E+9	   22.3572	   22.5168	    6.4149	  -16.0437	
 -245.0000	6.941E-12	2.220E+9	   22.3598	   22.5178	    6.4219	  -16.0300	
 -250.0000	6.934E-12	2.159E+9	   22.3598	   22.5178	    6.4352	  -16.0052	
 -255.0000	6.930E-12	2.103E+9	   22.3598	   22.5176	    6.4418	  -15.9931	
 -260.0000	6.925E-12	2.082E+9	   22.3572	   22.5169	    6.4415	  -15.9942	
 -265.0000	6.919E-12	2.146E+9	   22.3598	   22.5169	    6.4485	  -15.9813	
 -270.0000	6.917E-12	2.151E+9	   22.3598	   22.5194	    6.4488	  -15.9788	
 -275.0000	6.916E-12	2.135E+9	   22.3572	   22.5222	    6.4595	  -15.9569	
 -280.0000	6.909E-12	2.132E+9	   22.3598	   22.5222	    6.4605	  -15.9551	
 -285.0000	6.908E-12	2.179E+9	   22.3598	   22.5217	    6.4608	  -15.9548	
 -290.0000	6.906E-12	2.167E+9	   22.3598	   22.5204	    6.4494	  -15.9769	
 -295.0000	6.908E-12	2.111E+9	   22.3572	   22.5149	    6.4583	  -15.9645	
 -300.0000	6.901E-12	2.183E+9	   22.3598	   22.5223	    6.4583	  -15.9591	
 -305.0000	6.901E-12	2.011E+9	   22.3598	   22.5223	    6.4583	  -15.9591	
 -310.0000	6.901E-12	2.120E+9	   22.3598	   22.5223	    6.4624	  -15.9515	
 -315.0000	6.894E-12	2.086E+9	   22.3598	   22.5177	    6.4750	  -15.9314	
 -320.0000	6.900E-12	2.104E+9	   22.3598	   22.5165	    6.4605	  -15.9592	
 -325.0000	6.892E-12	2.120E+9	   22.3598	   22.5165	    6.4605	  -15.9592	
 -330.0000	6.891E-12	2.155E+9	   22.3598	   22.5194	    6.4602	  -15.9577	
 -335.0000	6.892E-12	2.165E+9	   22.3598	   22.5216	    6.4466	  -15.9813	
 -340.0000	6.893E-12	2.048E+9	   22.3598	   22.5172	    6.4393	  -15.9981	
 -345.0000	6.891E-12	2.039E+9	   22.3598	   22.5199	    6.4428	  -15.9897	
 -350.0000	6.888E-12	2.029E+9	   22.3598	   22.5215	    6.4377	  -15.9979	
 -355.0000	6.881E-12	1.908E+9	   22.3598	   22.5215	    6.4377	  -15.9979	
 -360.0000	6.869E-12	1.824E+9	   22.3572	   22.5253	    6.4342	  -16.0016	
 -365.0000	6.858E-12	1.868E+9	   22.3598	   22.5258	    6.4383	  -15.9936	
 -370.0000	6.850E-12	1.979E+9	   22.3598	   22.5258	    6.4383	  -15.9936	
 -375.0000	6.846E-12	2.381E+9	   22.3598	   22.5227	    6.4336	  -16.0047	
 -380.0000	6.843E-12	2.553E+9	   22.3598	   22.5238	    6.4390	  -15.9939	
 -385.0000	6.840E-12	2.510E+9	   22.3598	   22.5238	    6.4390	  -15.9939	
 -390.0000	6.843E-12	2.357E+9	   22.3572	   22.5235	    6.4466	  -15.9800	
 -395.0000	6.843E-12	2.682E+9	   22.3572	   22.5208	    6.4497	  -15.9760	
 -400.0000	6.841E-12	2.573E+9	   22.3572	   22.5204	    6.4522	  -15.9717	
 -410.0000	6.838E-12	2.645E+9	   22.3598	   22.5215	    6.4459	  -15.9826	
 -420.0000	6.836E-12	2.513E+9	   22.3598	   22.5225	    6.4541	  -15.9666	
 -430.0000	6.834E-12	2.545E+9	   22.3572	   22.5242	    6.4529	  -15.9677	
 -440.0000	6.835E-12	2.767E+9	   22.3572	   22.5204	    6.4624	  -15.9529	
 -450.0000	6.834E-12	2.681E+9	   22.3598	   22.5223	    6.4662	  -15.9445	
 -460.0000	6.831E-12	2.807E+9	   22.3572	   22.5242	    6.4576	  -15.9589	
 -470.0000	6.833E-12	2.710E+9	   22.3598	   22.5239	    6.4535	  -15.9667	
 -480.0000	6.835E-12	2.854E+9	   22.3598	   22.5283	    6.4412	  -15.9865	
 -490.0000	6.833E-12	2.839E+9	   22.3598	   22.5283	    6.4491	  -15.9718	
 -500.0000	6.833E-12	2.806E+9	   22.3598	   22.5215	    6.4529	  -15.9697	
 -510.0000	6.830E-12	2.855E+9	   22.3598	   22.5252	    6.4393	  -15.9923	
 -520.0000	6.832E-12	2.789E+9	   22.3572	   22.5239	    6.4500	  -15.9732	
 -530.0000	6.830E-12	2.805E+9	   22.3598	   22.5242	    6.4472	  -15.9783	
 -540.0000	6.829E-12	2.992E+9	   22.3572	   22.5219	    6.4494	  -15.9758	
 -550.0000	6.829E-12	2.796E+9	   22.3572	   22.5249	    6.4330	  -16.0042	
 -560.0000	6.830E-12	3.106E+9	   22.3572	   22.5240	    6.4156	  -16.0373	
 -570.0000	6.827E-12	2.936E+9	   22.3598	   22.5232	    6.4156	  -16.0379	
 -580.0000	6.825E-12	2.886E+9	   22.3572	   22.5232	    6.4140	  -16.0409	
 -590.0000	6.826E-12	2.760E+9	   22.3572	   22.5255	    6.4058	  -16.0545	
 -600.0000	6.828E-12	3.035E+9	   22.3598	   22.5256	    6.4007	  -16.0639	
