GCD Test
Bias: 5000.000000
CV_34341_024_PSS_HM_XX_DIODEHALFPSTOP_GRConnected_Biased_Box
Date/Time: 7/23/2021 3:07:42 PM
Sensor Name: DIODEHALFPSTOP
Type: P
Annealing Status: Not Irradiated
Environment: 20C
Tester: Andrew Kent

Time Delay per Ramp Step (s): 0.500

CV Time Delay per Measurement (s) :0.500

AC Voltage (V): 0.500

Current Number of measurements per voltage: 1.000

IV Time Delay per Measurement (s) :0.000


BiasVoltage	LCR_Cp_freqNaN	LCR_Rp_freqNaN	Temperature	Air_Temp	Humidity	Dewpoint	
   -5.0000	1.959E-11	7.419E+8	   20.1094	   19.9655	   33.7154	    3.5231	
  -10.0000	1.517E-11	1.005E+9	   20.0373	   19.9566	   33.7081	    3.5122	
  -15.0000	1.315E-11	1.103E+9	   19.9447	   19.9621	   33.7236	    3.5236	
  -20.0000	1.193E-11	1.173E+9	   19.9447	   19.9621	   33.7236	    3.5236	
  -25.0000	1.109E-11	1.268E+9	   19.8083	   19.9552	   33.7195	    3.5158	
  -30.0000	1.050E-11	1.380E+9	   19.7928	   19.9332	   33.7249	    3.4988	
  -35.0000	1.001E-11	1.299E+9	   19.8263	   19.9332	   33.7441	    3.5069	
  -40.0000	9.614E-12	1.346E+9	   19.8829	   19.9497	   33.7410	    3.5200	
  -45.0000	9.294E-12	1.486E+9	   19.9653	   19.9456	   33.7435	    3.5175	
  -50.0000	9.018E-12	1.417E+9	   20.0502	   19.9489	   33.7413	    3.5194	
  -55.0000	8.773E-12	1.402E+9	   20.1351	   19.9475	   33.7460	    3.5202	
  -60.0000	8.571E-12	1.459E+9	   20.2021	   19.9389	   33.7574	    3.5175	
  -65.0000	8.387E-12	1.546E+9	   20.2458	   19.9528	   33.7543	    3.5283	
  -70.0000	8.218E-12	1.563E+9	   20.2535	   19.9461	   33.7438	    3.5181	
  -75.0000	8.075E-12	1.626E+9	   20.2252	   19.9558	   33.7476	    3.5281	
  -80.0000	7.942E-12	1.645E+9	   20.1712	   19.9533	   33.7524	    3.5280	
  -85.0000	7.822E-12	1.688E+9	   20.0914	   19.9488	   33.7328	    3.5158	
  -90.0000	7.708E-12	1.660E+9	   20.0064	   19.9532	   33.7460	    3.5252	
  -95.0000	7.620E-12	1.646E+9	   19.9112	   19.9395	   33.7407	    3.5110	
 -100.0000	7.511E-12	1.792E+9	   19.8366	   19.9390	   33.7410	    3.5107	
 -105.0000	7.429E-12	1.745E+9	   19.7825	   19.9442	   33.7419	    3.5156	
 -110.0000	7.342E-12	1.781E+9	   19.7516	   19.9458	   33.7312	    3.5125	
 -115.0000	7.275E-12	1.781E+9	   19.7774	   19.9497	   33.7448	    3.5216	
 -120.0000	7.201E-12	1.728E+9	   19.8263	   19.9413	   33.7429	    3.5134	
 -125.0000	7.139E-12	1.692E+9	   19.9009	   19.9401	   33.7511	    3.5158	
 -130.0000	7.076E-12	1.767E+9	   19.9884	   19.9429	   33.7641	    3.5237	
 -135.0000	7.016E-12	1.728E+9	   20.0888	   19.9408	   33.7574	    3.5191	
 -140.0000	6.960E-12	1.691E+9	   20.1686	   19.9360	   33.7720	    3.5210	
 -145.0000	6.913E-12	1.935E+9	   20.2510	   19.9409	   33.7647	    3.5222	
 -150.0000	6.861E-12	1.818E+9	   20.2690	   19.9480	   33.7562	    3.5248	
 -155.0000	6.806E-12	1.687E+9	   20.2561	   19.9519	   33.7517	    3.5264	
 -160.0000	6.762E-12	1.837E+9	   20.2072	   19.9515	   33.7600	    3.5296	
 -165.0000	6.722E-12	1.860E+9	   20.2072	   19.9515	   33.7600	    3.5296	
 -170.0000	6.678E-12	1.923E+9	   19.9961	   19.9556	   33.7394	    3.5245	
 -175.0000	6.639E-12	1.751E+9	   19.8983	   19.9456	   33.7473	    3.5191	
 -180.0000	6.602E-12	1.739E+9	   19.8211	   19.9389	   33.7385	    3.5095	
 -185.0000	6.558E-12	1.741E+9	   19.7748	   19.9380	   33.7479	    3.5127	
 -190.0000	6.529E-12	2.013E+9	   19.7594	   19.9357	   33.7505	    3.5117	
 -195.0000	6.493E-12	1.818E+9	   19.8005	   19.9420	   33.7508	    3.5174	
 -200.0000	6.457E-12	1.931E+9	   19.8623	   19.9309	   33.7448	    3.5051	
 -205.0000	6.418E-12	1.875E+9	   19.9550	   19.9420	   33.7454	    3.5151	
 -210.0000	6.385E-12	1.800E+9	   20.0579	   19.9464	   33.7574	    3.5240	
 -215.0000	6.358E-12	2.067E+9	   20.0579	   19.9464	   33.7574	    3.5240	
 -220.0000	6.323E-12	1.874E+9	   20.1840	   19.9446	   33.7606	    3.5237	
 -225.0000	6.302E-12	1.827E+9	   20.2510	   19.9444	   33.7517	    3.5199	
 -230.0000	6.283E-12	2.195E+9	   20.2767	   19.9582	   33.7419	    3.5279	
 -235.0000	6.270E-12	1.912E+9	   20.2278	   19.9531	   33.7451	    3.5247	
 -240.0000	6.257E-12	1.855E+9	   20.1403	   19.9496	   33.7362	    3.5180	
 -245.0000	6.247E-12	2.126E+9	   19.9781	   19.9496	   33.7400	    3.5195	
 -250.0000	6.237E-12	1.890E+9	   19.8932	   19.9556	   33.7287	    3.5200	
 -255.0000	6.232E-12	2.010E+9	   19.8185	   19.9482	   33.7274	    3.5130	
 -260.0000	6.230E-12	1.877E+9	   19.7696	   19.9418	   33.7296	    3.5083	
 -265.0000	6.228E-12	1.883E+9	   19.7619	   19.9389	   33.7359	    3.5084	
 -270.0000	6.230E-12	2.040E+9	   19.8005	   19.9404	   33.7138	    3.5004	
 -275.0000	6.230E-12	1.820E+9	   19.8674	   19.9422	   33.7201	    3.5046	
 -280.0000	6.229E-12	2.070E+9	   19.9627	   19.9476	   33.7448	    3.5198	
 -285.0000	6.226E-12	1.993E+9	   20.0579	   19.9471	   33.7347	    3.5150	
 -290.0000	6.227E-12	2.133E+9	   20.1557	   19.9445	   33.7508	    3.5196	
 -295.0000	6.229E-12	1.945E+9	   20.2252	   19.9369	   33.7448	    3.5104	
 -300.0000	6.222E-12	1.781E+9	   20.2638	   19.9470	   33.7350	    3.5151	
 -305.0000	6.222E-12	2.038E+9	   20.2638	   19.9386	   33.7378	    3.5089	
 -310.0000	6.217E-12	1.758E+9	   20.2201	   19.9420	   33.7381	    3.5121	
 -315.0000	6.218E-12	1.777E+9	   20.1326	   19.9420	   33.7356	    3.5110	
 -320.0000	6.227E-12	2.217E+9	   20.1326	   19.9420	   33.7356	    3.5110	
 -325.0000	6.220E-12	1.788E+9	   20.0142	   19.9500	   33.7366	    3.5184	
 -330.0000	6.221E-12	1.795E+9	   19.9266	   19.9437	   33.7324	    3.5111	
 -335.0000	6.224E-12	1.787E+9	   19.7954	   19.9386	   33.7385	    3.5092	
 -340.0000	6.216E-12	1.876E+9	   19.7696	   19.9414	   33.7366	    3.5108	
 -345.0000	6.210E-12	1.946E+9	   19.8005	   19.9302	   33.7413	    3.5030	
 -350.0000	6.217E-12	1.801E+9	   19.8572	   19.9379	   33.7508	    3.5138	
 -355.0000	6.224E-12	1.814E+9	   19.9781	   19.9262	   33.7521	    3.5040	
 -360.0000	6.222E-12	1.862E+9	   20.0656	   19.9308	   33.7590	    3.5110	
 -365.0000	6.216E-12	1.872E+9	   20.1609	   19.9335	   33.7720	    3.5188	
 -370.0000	6.215E-12	1.969E+9	   20.2252	   19.9287	   33.7717	    3.5145	
 -375.0000	6.215E-12	1.815E+9	   20.2664	   19.9295	   33.7736	    3.5159	
 -380.0000	6.213E-12	2.009E+9	   20.2613	   19.9265	   33.7615	    3.5083	
 -385.0000	6.217E-12	1.995E+9	   20.2072	   19.9333	   33.7786	    3.5214	
 -390.0000	6.220E-12	1.804E+9	   20.1094	   19.9333	   33.7770	    3.5208	
 -395.0000	6.215E-12	2.019E+9	   19.9858	   19.9299	   33.7786	    3.5185	
 -400.0000	6.218E-12	1.823E+9	   19.9009	   19.9205	   33.7780	    3.5099	
 -410.0000	6.217E-12	1.904E+9	   19.8211	   19.9172	   33.7751	    3.5058	
 -420.0000	6.216E-12	1.779E+9	   19.7696	   19.9140	   33.7824	    3.5060	
 -430.0000	6.217E-12	2.070E+9	   19.7594	   19.9166	   33.7707	    3.5034	
 -440.0000	6.208E-12	1.833E+9	   19.7799	   19.9169	   33.7913	    3.5123	
 -450.0000	6.209E-12	1.896E+9	   19.8443	   19.9127	   33.7998	    3.5122	
 -460.0000	6.215E-12	2.092E+9	   19.8443	   19.9127	   33.7998	    3.5122	
 -470.0000	6.212E-12	1.854E+9	   20.0116	   19.9127	   33.7976	    3.5113	
 -480.0000	6.210E-12	1.857E+9	   20.1686	   19.9228	   33.8080	    3.5245	
 -490.0000	6.210E-12	1.834E+9	   20.3230	   19.9204	   33.8197	    3.5273	
 -500.0000	6.206E-12	1.994E+9	   20.3256	   19.9293	   33.8001	    3.5269	
 -510.0000	6.212E-12	2.015E+9	   20.2819	   19.9196	   33.8150	    3.5246	
 -520.0000	6.208E-12	1.907E+9	   20.2226	   19.9233	   33.8099	    3.5258	
 -530.0000	6.217E-12	1.883E+9	   20.1403	   19.9228	   33.8036	    3.5226	
 -540.0000	6.216E-12	1.864E+9	   20.0450	   19.9209	   33.8001	    3.5196	
 -550.0000	6.212E-12	2.116E+9	   19.9421	   19.9188	   33.7992	    3.5173	
 -560.0000	6.208E-12	1.883E+9	   19.8494	   19.9188	   33.7951	    3.5156	
 -570.0000	6.211E-12	1.808E+9	   19.7980	   19.9124	   33.8058	    3.5144	
 -580.0000	6.207E-12	1.927E+9	   19.7980	   19.9124	   33.8058	    3.5144	
 -590.0000	6.217E-12	1.853E+9	   19.8005	   19.9085	   33.8172	    3.5158	
 -600.0000	6.207E-12	1.875E+9	   19.8366	   19.9094	   33.8213	    3.5183	
