GCD Test
Bias: 5000.000000
IV_N4789_21_UR_DIODE_GR_Irradiated_Annealed_60C_0min
Date/Time: 5/5/2022 2:01:24 PM
Sensor Name: 
Type: 
Annealing Status: Irradiated and Annealed at 60C for 0 Minutes
Environment: 
Tester: Andrew Kent

Time Delay per Ramp Step (s): 0.500

CV Time Delay per Measurement (s) :0.500

AC Voltage (V): 0.500

Current Number of measurements per voltage: 4.000

IV Time Delay per Measurement (s) :0.000


BiasVoltage	Total Current_Avg	Total Current_0	Total Current_1	Total Current_2	Total Current_3	Bias Current_Avg	Bias Current_0	Bias Current_1	Bias Current_2	Bias Current_3	Temperature	Air_Temp	Humidity	Dewpoint	
   -1.0000	-5.2495E-6	-5.2480E-6	-5.2450E-6	-5.2530E-6	-5.2520E-6	-5.194488E-6	-5.195118E-6	-5.192000E-6	-5.187600E-6	-5.203235E-6	    0.3198	   15.3798	    9.8333	  -16.2634	
   -2.0000	-1.0627E-5	-1.0630E-5	-1.0630E-5	-1.0630E-5	-1.0620E-5	-8.996414E-6	-8.996490E-6	-8.984936E-6	-8.993783E-6	-9.010448E-6	    0.3608	   15.3798	    9.8185	  -16.2814	
   -3.0000	-1.4283E-5	-1.4270E-5	-1.4290E-5	-1.4300E-5	-1.4270E-5	-1.204661E-5	-1.207138E-5	-1.205451E-5	-1.203510E-5	-1.202544E-5	    0.3813	   15.3847	    9.8118	  -16.2857	
   -4.0000	-1.7302E-5	-1.7300E-5	-1.7290E-5	-1.7300E-5	-1.7320E-5	-1.452597E-5	-1.452051E-5	-1.452065E-5	-1.452895E-5	-1.453378E-5	    0.3992	   15.3404	    9.8172	  -16.3132	
   -5.0000	-1.9867E-5	-1.9860E-5	-1.9880E-5	-1.9860E-5	-1.9870E-5	-1.662455E-5	-1.661855E-5	-1.663631E-5	-1.663659E-5	-1.660676E-5	    0.4017	   15.3404	    9.8153	  -16.3155	
   -6.0000	-2.2155E-5	-2.2170E-5	-2.2150E-5	-2.2180E-5	-2.2120E-5	-1.841189E-5	-1.841209E-5	-1.841991E-5	-1.841103E-5	-1.840455E-5	    0.3889	   15.3306	    9.8210	  -16.3161	
   -7.0000	-2.4167E-5	-2.4200E-5	-2.4170E-5	-2.4160E-5	-2.4140E-5	-1.996726E-5	-1.997592E-5	-1.998447E-5	-1.994974E-5	-1.995893E-5	    0.3787	   15.3255	    9.8333	  -16.3050	
   -8.0000	-2.5970E-5	-2.6000E-5	-2.5960E-5	-2.5980E-5	-2.5940E-5	-2.134374E-5	-2.137221E-5	-2.132156E-5	-2.132241E-5	-2.135878E-5	    0.3378	   15.3029	    9.8362	  -16.3189	
   -9.0000	-2.7630E-5	-2.7630E-5	-2.7600E-5	-2.7670E-5	-2.7620E-5	-2.253023E-5	-2.256991E-5	-2.256358E-5	-2.249912E-5	-2.248833E-5	    0.2994	   15.2746	    9.8574	  -16.3149	
  -10.0000	-2.9148E-5	-2.9190E-5	-2.9170E-5	-2.9130E-5	-2.9100E-5	-2.364648E-5	-2.367684E-5	-2.367424E-5	-2.362311E-5	-2.361174E-5	    0.2559	   15.2746	    9.8488	  -16.3252	
  -20.0000	-4.1863E-5	-4.1950E-5	-4.1900E-5	-4.1810E-5	-4.1790E-5	-3.222824E-5	-3.224038E-5	-3.223214E-5	-3.221684E-5	-3.222361E-5	    0.2098	   15.2610	    9.8574	  -16.3253	
  -30.0000	-5.0783E-5	-5.0790E-5	-5.0720E-5	-5.0800E-5	-5.0820E-5	-3.822027E-5	-3.824639E-5	-3.817186E-5	-3.824105E-5	-3.822179E-5	    0.1689	   15.2643	    9.8523	  -16.3289	
  -40.0000	-5.7698E-5	-5.7860E-5	-5.7620E-5	-5.7680E-5	-5.7630E-5	-4.291116E-5	-4.299886E-5	-4.288603E-5	-4.294238E-5	-4.281736E-5	    0.1023	   15.2407	    9.8482	  -16.3519	
  -50.0000	-6.3463E-5	-6.3510E-5	-6.3460E-5	-6.3420E-5	-6.3460E-5	-4.699172E-5	-4.709145E-5	-4.693273E-5	-4.706337E-5	-4.687931E-5	    0.0640	   15.2407	    9.8507	  -16.3489	
  -60.0000	-6.8598E-5	-6.8680E-5	-6.8580E-5	-6.8580E-5	-6.8550E-5	-5.077927E-5	-5.077005E-5	-5.076284E-5	-5.081411E-5	-5.077008E-5	    0.0051	   15.2064	    9.8602	  -16.3637	
  -70.0000	-7.3440E-5	-7.3560E-5	-7.3470E-5	-7.3420E-5	-7.3310E-5	-5.407190E-5	-5.411303E-5	-5.407690E-5	-5.402002E-5	-5.407765E-5	   -0.0154	   15.1693	    9.8580	  -16.3949	
  -80.0000	-7.7765E-5	-7.7800E-5	-7.7820E-5	-7.7810E-5	-7.7630E-5	-5.714306E-5	-5.715868E-5	-5.713727E-5	-5.717863E-5	-5.709766E-5	   -0.0665	   15.1704	    9.8542	  -16.3986	
  -90.0000	-8.1708E-5	-8.1710E-5	-8.1760E-5	-8.1680E-5	-8.1680E-5	-6.013553E-5	-6.024983E-5	-6.014460E-5	-6.007693E-5	-6.007075E-5	   -0.1228	   15.1368	    9.8634	  -16.4133	
 -100.0000	-8.5645E-5	-8.5660E-5	-8.5640E-5	-8.5660E-5	-8.5620E-5	-6.304327E-5	-6.313412E-5	-6.296004E-5	-6.300407E-5	-6.307486E-5	   -0.1663	   15.1412	    9.8744	  -16.3965	
 -120.0000	-9.3250E-5	-9.3350E-5	-9.3280E-5	-9.3100E-5	-9.3270E-5	-6.865086E-5	-6.866929E-5	-6.863842E-5	-6.865626E-5	-6.863945E-5	   -0.1945	   15.1370	    9.8460	  -16.4342	
 -140.0000	-1.0045E-4	-1.0040E-4	-1.0050E-4	-1.0050E-4	-1.0040E-4	-7.423114E-5	-7.418838E-5	-7.417574E-5	-7.424154E-5	-7.431890E-5	   -0.2175	   15.1266	    9.8770	  -16.4047	
 -160.0000	-1.0745E-4	-1.0750E-4	-1.0740E-4	-1.0740E-4	-1.0750E-4	-7.950271E-5	-7.951568E-5	-7.954957E-5	-7.942962E-5	-7.951598E-5	   -0.2405	   15.1062	    9.9032	  -16.3887	
 -180.0000	-1.1400E-4	-1.1400E-4	-1.1420E-4	-1.1400E-4	-1.1380E-4	-8.450740E-5	-8.456526E-5	-8.442422E-5	-8.453265E-5	-8.450746E-5	   -0.2482	   15.1126	    9.8947	  -16.3940	
 -200.0000	-1.2063E-4	-1.2050E-4	-1.2070E-4	-1.2080E-4	-1.2050E-4	-8.967546E-5	-8.969476E-5	-8.978177E-5	-8.969711E-5	-8.952822E-5	   -0.2482	   15.1163	    9.9070	  -16.3763	
 -220.0000	-1.2690E-4	-1.2670E-4	-1.2690E-4	-1.2700E-4	-1.2700E-4	-9.475122E-5	-9.478071E-5	-9.468041E-5	-9.469100E-5	-9.485277E-5	   -0.2405	   15.0723	    9.9039	  -16.4139	
 -240.0000	-1.3333E-4	-1.3330E-4	-1.3310E-4	-1.3340E-4	-1.3350E-4	-9.937959E-5	-9.949440E-5	-9.938750E-5	-9.950792E-5	-9.912854E-5	   -0.2124	   15.0589	    9.9023	  -16.4261	
 -260.0000	-1.3915E-4	-1.3910E-4	-1.3890E-4	-1.3930E-4	-1.3930E-4	-1.041130E-4	-1.040992E-4	-1.041444E-4	-1.042100E-4	-1.039983E-4	   -0.2098	   15.0657	    9.9051	  -16.4175	
 -280.0000	-1.4503E-4	-1.4500E-4	-1.4510E-4	-1.4510E-4	-1.4490E-4	-1.085064E-4	-1.083033E-4	-1.084585E-4	-1.086328E-4	-1.086309E-4	   -0.1817	   15.0360	    9.9102	  -16.4342	
 -300.0000	-1.5053E-4	-1.5040E-4	-1.5020E-4	-1.5060E-4	-1.5090E-4	-1.128375E-4	-1.131149E-4	-1.127869E-4	-1.126937E-4	-1.127547E-4	   -0.1663	   15.0257	    9.9099	  -16.4424	
 -320.0000	-1.5605E-4	-1.5610E-4	-1.5580E-4	-1.5620E-4	-1.5610E-4	-1.169420E-4	-1.168429E-4	-1.168369E-4	-1.170092E-4	-1.170792E-4	   -0.1407	   15.0156	    9.9067	  -16.4540	
 -340.0000	-1.6107E-4	-1.6100E-4	-1.6110E-4	-1.6100E-4	-1.6120E-4	-1.209360E-4	-1.207351E-4	-1.209144E-4	-1.211385E-4	-1.209560E-4	   -0.1075	   15.0187	    9.9273	  -16.4269	
 -360.0000	-1.6585E-4	-1.6560E-4	-1.6590E-4	-1.6580E-4	-1.6610E-4	-1.245591E-4	-1.245123E-4	-1.245796E-4	-1.246171E-4	-1.245276E-4	   -0.0716	   15.0280	    9.9333	  -16.4125	
 -380.0000	-1.7025E-4	-1.7000E-4	-1.7010E-4	-1.7040E-4	-1.7050E-4	-1.278632E-4	-1.277592E-4	-1.278777E-4	-1.279152E-4	-1.279008E-4	   -0.0409	   15.0014	    9.9333	  -16.4330	
 -400.0000	-1.7450E-4	-1.7440E-4	-1.7430E-4	-1.7460E-4	-1.7470E-4	-1.307781E-4	-1.307620E-4	-1.307543E-4	-1.308338E-4	-1.307622E-4	   -0.0102	   14.9992	    9.9405	  -16.4259	
 -420.0000	-1.7875E-4	-1.7850E-4	-1.7860E-4	-1.7890E-4	-1.7900E-4	-1.339670E-4	-1.340492E-4	-1.340195E-4	-1.339600E-4	-1.338392E-4	    0.0230	   15.0053	    9.9428	  -16.4186	
 -440.0000	-1.8263E-4	-1.8240E-4	-1.8250E-4	-1.8290E-4	-1.8270E-4	-1.366750E-4	-1.366621E-4	-1.365772E-4	-1.367988E-4	-1.366618E-4	    0.0486	   14.9902	    9.9459	  -16.4264	
 -460.0000	-1.8665E-4	-1.8660E-4	-1.8690E-4	-1.8670E-4	-1.8640E-4	-1.394048E-4	-1.394899E-4	-1.393390E-4	-1.393136E-4	-1.394767E-4	    0.0844	   14.9643	    9.9573	  -16.4326	
 -480.0000	-1.9025E-4	-1.9020E-4	-1.9040E-4	-1.9020E-4	-1.9020E-4	-1.423140E-4	-1.422716E-4	-1.423423E-4	-1.424457E-4	-1.421963E-4	    0.0998	   14.9515	    9.9668	  -16.4311	
 -500.0000	-1.9398E-4	-1.9410E-4	-1.9410E-4	-1.9380E-4	-1.9390E-4	-1.450388E-4	-1.450286E-4	-1.450092E-4	-1.449497E-4	-1.451678E-4	    0.1177	   14.9543	    9.9538	  -16.4444	
 -520.0000	-1.9750E-4	-1.9770E-4	-1.9760E-4	-1.9740E-4	-1.9730E-4	-1.476767E-4	-1.473652E-4	-1.478779E-4	-1.478803E-4	-1.475836E-4	    0.1305	   14.9583	    9.9649	  -16.4281	
 -540.0000	-2.0115E-4	-2.0120E-4	-2.0120E-4	-2.0120E-4	-2.0100E-4	-1.503334E-4	-1.504828E-4	-1.503522E-4	-1.503393E-4	-1.501594E-4	    0.1433	   14.9495	    9.9655	  -16.4341	
 -560.0000	-2.0462E-4	-2.0450E-4	-2.0440E-4	-2.0490E-4	-2.0470E-4	-1.528448E-4	-1.528218E-4	-1.527949E-4	-1.527754E-4	-1.529869E-4	    0.1407	   14.9271	    9.9655	  -16.4513	
 -580.0000	-2.0820E-4	-2.0840E-4	-2.0830E-4	-2.0810E-4	-2.0800E-4	-1.551869E-4	-1.550787E-4	-1.551264E-4	-1.552032E-4	-1.553392E-4	    0.1382	   14.9254	    9.9668	  -16.4511	
 -600.0000	-2.1180E-4	-2.1200E-4	-2.1170E-4	-2.1190E-4	-2.1160E-4	-1.577837E-4	-1.579326E-4	-1.577308E-4	-1.576659E-4	-1.578056E-4	    0.1331	   14.9159	    9.9681	  -16.4569	
 -620.0000	-2.1485E-4	-2.1490E-4	-2.1500E-4	-2.1470E-4	-2.1480E-4	-1.605291E-4	-1.606187E-4	-1.603230E-4	-1.605194E-4	-1.606554E-4	    0.1279	   14.8974	    9.9747	  -16.4632	
 -640.0000	-2.1843E-4	-2.1850E-4	-2.1830E-4	-2.1830E-4	-2.1860E-4	-1.630572E-4	-1.628833E-4	-1.629554E-4	-1.630519E-4	-1.633384E-4	    0.1177	   14.9018	    9.9817	  -16.4515	
 -660.0000	-2.2193E-4	-2.2200E-4	-2.2220E-4	-2.2180E-4	-2.2170E-4	-1.657880E-4	-1.656185E-4	-1.655683E-4	-1.657930E-4	-1.661722E-4	    0.0998	   14.8865	    9.9930	  -16.4496	
 -680.0000	-2.2600E-4	-2.2540E-4	-2.2600E-4	-2.2630E-4	-2.2630E-4	-1.687874E-4	-1.689038E-4	-1.686279E-4	-1.686136E-4	-1.690042E-4	    0.0896	   14.8824	    9.9943	  -16.4513	
 -700.0000	-2.2970E-4	-2.2960E-4	-2.2970E-4	-2.2950E-4	-2.3000E-4	-1.716992E-4	-1.719936E-4	-1.718110E-4	-1.714305E-4	-1.715616E-4	    0.0665	   14.8730	    9.9937	  -16.4593	
 -720.0000	-2.3368E-4	-2.3390E-4	-2.3380E-4	-2.3370E-4	-2.3330E-4	-1.748604E-4	-1.749523E-4	-1.748279E-4	-1.746568E-4	-1.750044E-4	    0.0486	   14.8602	    9.9953	  -16.4672	
 -740.0000	-2.3770E-4	-2.3790E-4	-2.3770E-4	-2.3770E-4	-2.3750E-4	-1.778888E-4	-1.777999E-4	-1.778293E-4	-1.778337E-4	-1.780924E-4	    0.0358	   14.8591	   10.0076	  -16.4533	
 -760.0000	-2.4200E-4	-2.4210E-4	-2.4200E-4	-2.4200E-4	-2.4190E-4	-1.812116E-4	-1.811851E-4	-1.812894E-4	-1.812135E-4	-1.811585E-4	    0.0230	   14.8550	   10.0104	  -16.4531	
 -780.0000	-2.4655E-4	-2.4670E-4	-2.4660E-4	-2.4660E-4	-2.4630E-4	-1.849102E-4	-1.849318E-4	-1.850712E-4	-1.848670E-4	-1.847710E-4	   -0.0051	   14.8108	   10.0111	  -16.4863	
 -800.0000	-2.5157E-4	-2.5170E-4	-2.5140E-4	-2.5150E-4	-2.5170E-4	-1.886297E-4	-1.887168E-4	-1.886370E-4	-1.884037E-4	-1.887612E-4	   -0.0179	   14.7981	   10.0079	  -16.4998	
 -820.0000	-2.5677E-4	-2.5680E-4	-2.5670E-4	-2.5680E-4	-2.5680E-4	-1.929707E-4	-1.932477E-4	-1.929200E-4	-1.929933E-4	-1.927217E-4	   -0.0358	   14.7971	   10.0196	  -16.4867	
 -840.0000	-2.6208E-4	-2.6200E-4	-2.6230E-4	-2.6190E-4	-2.6210E-4	-1.971711E-4	-1.971345E-4	-1.974512E-4	-1.971545E-4	-1.969442E-4	   -0.0435	   14.7723	   10.0269	  -16.4971	
 -860.0000	-2.6842E-4	-2.6890E-4	-2.6850E-4	-2.6800E-4	-2.6830E-4	-2.020518E-4	-2.022613E-4	-2.021132E-4	-2.018937E-4	-2.019391E-4	   -0.0588	   14.7538	   10.0247	  -16.5140	
 -880.0000	-2.7470E-4	-2.7450E-4	-2.7500E-4	-2.7450E-4	-2.7480E-4	-2.068110E-4	-2.070562E-4	-2.067804E-4	-2.065817E-4	-2.068259E-4	   -0.0691	   14.7731	   10.0221	  -16.5022	
 -900.0000	-2.8125E-4	-2.8110E-4	-2.8130E-4	-2.8140E-4	-2.8120E-4	-2.124279E-4	-2.125348E-4	-2.125055E-4	-2.124661E-4	-2.122053E-4	   -0.0819	   14.7750	   10.0338	  -16.4867	
 -920.0000	-2.8892E-4	-2.8910E-4	-2.8900E-4	-2.8870E-4	-2.8890E-4	-2.187885E-4	-2.185727E-4	-2.186501E-4	-2.188708E-4	-2.190604E-4	   -0.0819	   14.7526	   10.0389	  -16.4980	
 -940.0000	-2.9712E-4	-2.9730E-4	-2.9720E-4	-2.9700E-4	-2.9700E-4	-2.251418E-4	-2.250594E-4	-2.252320E-4	-2.250165E-4	-2.252591E-4	   -0.0870	   14.7445	   10.0468	  -16.4948	
 -960.0000	-3.0635E-4	-3.0620E-4	-3.0590E-4	-3.0650E-4	-3.0680E-4	-2.323117E-4	-2.320550E-4	-2.323070E-4	-2.323574E-4	-2.325273E-4	   -0.0640	   14.7328	   10.0585	  -16.4899	
 -980.0000	-3.1525E-4	-3.1500E-4	-3.1540E-4	-3.1490E-4	-3.1570E-4	-2.397202E-4	-2.397858E-4	-2.396074E-4	-2.398061E-4	-2.396815E-4	   -0.0716	   14.6893	   10.0509	  -16.5324	
-1000.0000	-3.2598E-4	-3.2590E-4	-3.2570E-4	-3.2590E-4	-3.2640E-4	-2.489174E-4	-2.489162E-4	-2.490314E-4	-2.490159E-4	-2.487061E-4	   -0.0716	   14.7124	   10.0633	  -16.5000	
-1020.0000	-3.3717E-4	-3.3750E-4	-3.3690E-4	-3.3680E-4	-3.3750E-4	-2.577854E-4	-2.573689E-4	-2.579151E-4	-2.579173E-4	-2.579404E-4	   -0.0640	   14.6951	   10.0677	  -16.5081	
-1040.0000	-3.4972E-4	-3.4960E-4	-3.5010E-4	-3.4980E-4	-3.4940E-4	-2.679026E-4	-2.675661E-4	-2.683285E-4	-2.676222E-4	-2.680938E-4	   -0.0512	   14.6927	   10.0481	  -16.5331	
-1060.0000	-3.6390E-4	-3.6350E-4	-3.6390E-4	-3.6440E-4	-3.6380E-4	-2.795117E-4	-2.793327E-4	-2.793670E-4	-2.797251E-4	-2.796219E-4	   -0.0486	   14.6869	   10.0667	  -16.5155	
-1080.0000	-3.7820E-4	-3.7780E-4	-3.7830E-4	-3.7830E-4	-3.7840E-4	-2.913034E-4	-2.912828E-4	-2.914498E-4	-2.912952E-4	-2.911859E-4	   -0.0435	   14.6868	   10.0642	  -16.5185	
-1100.0000	-3.9507E-4	-3.9550E-4	-3.9510E-4	-3.9510E-4	-3.9460E-4	-3.043101E-4	-3.043631E-4	-3.043341E-4	-3.039467E-4	-3.045964E-4	   -0.0179	   14.6639	   10.0623	  -16.5384	
