GCD Test
Bias: 5000.000000
IV_N4789_21_UR_DIODE_GR_Irradiated_Annealed_60C_30min
Date/Time: 5/7/2022 4:47:26 PM
Sensor Name: 
Type: P
Annealing Status: Irradiated and Annealed at 60C for 30 Minutes
Environment: 0C
Tester: Andrew Kent

Time Delay per Ramp Step (s): 0.500

CV Time Delay per Measurement (s) :0.500

AC Voltage (V): 0.500

Current Number of measurements per voltage: 1.000

IV Time Delay per Measurement (s) :0.000


BiasVoltage	Total Current_Avg	Total Current_0	Bias Current_Avg	Bias Current_0	Temperature	Air_Temp	Humidity	Dewpoint	
  -10.0000	-2.7380E-5	-2.7380E-5	-2.251849E-5	-2.251849E-5	    0.0026	   14.0607	   11.8833	  -15.0110	
  -20.0000	-4.0420E-5	-4.0420E-5	-3.103260E-5	-3.103260E-5	   -0.0000	   14.0607	   11.8833	  -15.0110	
  -30.0000	-4.9180E-5	-4.9180E-5	-3.676765E-5	-3.676765E-5	   -0.0000	   14.0369	   11.8023	  -15.1121	
  -40.0000	-5.5960E-5	-5.5960E-5	-4.138445E-5	-4.138445E-5	   -0.0000	   14.0369	   11.7264	  -15.1900	
  -50.0000	-6.1850E-5	-6.1850E-5	-4.558191E-5	-4.558191E-5	   -0.0000	   14.0369	   11.7264	  -15.1900	
  -60.0000	-6.7280E-5	-6.7280E-5	-4.937754E-5	-4.937754E-5	   -0.0026	   14.0393	   11.6069	  -15.3116	
  -70.0000	-7.2000E-5	-7.2000E-5	-5.272088E-5	-5.272088E-5	   -0.0051	   14.0422	   11.5291	  -15.3904	
  -80.0000	-7.6540E-5	-7.6540E-5	-5.613145E-5	-5.613145E-5	   -0.0051	   14.0422	   11.5291	  -15.3904	
  -90.0000	-8.0990E-5	-8.0990E-5	-5.920888E-5	-5.920888E-5	   -0.0051	   14.0553	   11.4241	  -15.4902	
 -100.0000	-8.5110E-5	-8.5110E-5	-6.229721E-5	-6.229721E-5	   -0.0026	   14.0571	   11.3672	  -15.5489	
 -110.0000	-8.9120E-5	-8.9120E-5	-6.509814E-5	-6.509814E-5	   -0.0026	   14.0571	   11.3672	  -15.5489	
 -120.0000	-9.3000E-5	-9.3000E-5	-6.800053E-5	-6.800053E-5	   -0.0026	   14.0481	   11.2701	  -15.6590	
 -130.0000	-9.6740E-5	-9.6740E-5	-7.081521E-5	-7.081521E-5	   -0.0026	   14.0462	   11.2195	  -15.7145	
 -140.0000	-1.0020E-4	-1.0020E-4	-7.356238E-5	-7.356238E-5	   -0.0026	   14.0462	   11.2195	  -15.7145	
 -150.0000	-1.0390E-4	-1.0390E-4	-7.609178E-5	-7.609178E-5	   -0.0077	   14.0462	   11.1537	  -15.7851	
 -160.0000	-1.0760E-4	-1.0760E-4	-7.886388E-5	-7.886388E-5	   -0.0077	   14.0462	   11.0879	  -15.7851	
 -170.0000	-1.1040E-4	-1.1040E-4	-8.136316E-5	-8.136316E-5	   -0.0077	   14.0460	   11.0879	  -15.8562	
 -180.0000	-1.1370E-4	-1.1370E-4	-8.379272E-5	-8.379272E-5	   -0.0102	   14.0609	   11.0446	  -15.8915	
 -190.0000	-1.1710E-4	-1.1710E-4	-8.636680E-5	-8.636680E-5	   -0.0102	   14.0609	   10.9829	  -15.8915	
 -200.0000	-1.2040E-4	-1.2040E-4	-8.884597E-5	-8.884597E-5	   -0.0102	   14.0415	   10.9829	  -15.9736	
 -220.0000	-1.2650E-4	-1.2650E-4	-9.350160E-5	-9.350160E-5	   -0.0077	   14.0478	   10.9529	  -16.0016	
 -240.0000	-1.3260E-4	-1.3260E-4	-9.809442E-5	-9.809442E-5	   -0.0000	   14.0478	   10.9529	  -16.0016	
 -260.0000	-1.3840E-4	-1.3840E-4	-1.025722E-4	-1.025722E-4	   -0.0000	   14.0469	   10.9096	  -16.0497	
 -280.0000	-1.4390E-4	-1.4390E-4	-1.071879E-4	-1.071879E-4	   -0.0026	   14.0469	   10.8865	  -16.0751	
 -300.0000	-1.4920E-4	-1.4920E-4	-1.108865E-4	-1.108865E-4	   -0.0026	   14.0469	   10.8865	  -16.0751	
 -320.0000	-1.5400E-4	-1.5400E-4	-1.146669E-4	-1.146669E-4	   -0.0026	   14.0425	   10.8422	  -16.1272	
 -340.0000	-1.5860E-4	-1.5860E-4	-1.183544E-4	-1.183544E-4	   -0.0026	   14.0425	   10.8276	  -16.1433	
 -360.0000	-1.6270E-4	-1.6270E-4	-1.212466E-4	-1.212466E-4	   -0.0026	   14.0425	   10.8276	  -16.1433	
 -380.0000	-1.6670E-4	-1.6670E-4	-1.241811E-4	-1.241811E-4	   -0.0000	   14.0430	   10.7998	  -16.1737	
 -400.0000	-1.7050E-4	-1.7050E-4	-1.269112E-4	-1.269112E-4	   -0.0026	   14.0549	   10.7834	  -16.1826	
 -440.0000	-1.7740E-4	-1.7740E-4	-1.320391E-4	-1.320391E-4	   -0.0026	   14.0549	   10.7834	  -16.1826	
 -480.0000	-1.8470E-4	-1.8470E-4	-1.373543E-4	-1.373543E-4	   -0.0051	   14.0328	   10.7612	  -16.2243	
 -520.0000	-1.9140E-4	-1.9140E-4	-1.424082E-4	-1.424082E-4	   -0.0051	   14.0383	   10.7435	  -16.2398	
 -560.0000	-1.9960E-4	-1.9960E-4	-1.482599E-4	-1.482599E-4	   -0.0051	   14.0383	   10.7435	  -16.2398	
 -600.0000	-2.0710E-4	-2.0710E-4	-1.542145E-4	-1.542145E-4	   -0.0000	   14.0477	   10.7337	  -16.2434	
 -640.0000	-2.1480E-4	-2.1480E-4	-1.602099E-4	-1.602099E-4	   -0.0000	   14.0496	   10.7090	  -16.2694	
 -680.0000	-2.2350E-4	-2.2350E-4	-1.665521E-4	-1.665521E-4	   -0.0026	   14.0504	   10.6983	  -16.2808	
 -720.0000	-2.3290E-4	-2.3290E-4	-1.737286E-4	-1.737286E-4	   -0.0026	   14.0504	   10.6983	  -16.2808	
 -760.0000	-2.4320E-4	-2.4320E-4	-1.817910E-4	-1.817910E-4	    0.0026	   14.0353	   10.6749	  -16.3186	
 -800.0000	-2.5480E-4	-2.5480E-4	-1.909719E-4	-1.909719E-4	    0.0026	   14.0340	   10.6616	  -16.3345	
 -840.0000	-2.6790E-4	-2.6790E-4	-2.004020E-4	-2.004020E-4	    0.0026	   14.0340	   10.6616	  -16.3345	
 -880.0000	-2.8240E-4	-2.8240E-4	-2.126162E-4	-2.126162E-4	   -0.0000	   14.0405	   10.6357	  -16.3585	
 -920.0000	-3.0000E-4	-3.0000E-4	-2.264911E-4	-2.264911E-4	   -0.0000	   14.0416	   10.6199	  -16.3754	
 -960.0000	-3.1990E-4	-3.1990E-4	-2.423801E-4	-2.423801E-4	    0.0051	   14.0349	   10.6148	  -16.3863	
-1000.0000	-3.4320E-4	-3.4320E-4	-2.617772E-4	-2.617772E-4	    0.0051	   14.0349	   10.6148	  -16.3863	
