GCD Test
Bias: 5000.000000
CV_34343_036_PSS_HM_XX_DIODEHALFPSTOP_GRConnected
Date/Time: 7/15/2021 1:51:49 PM
Sensor Name: DIODEHALFPSTOP
Type: P
Annealing Status: Not Irradiated
Environment: 20C
Tester: Andrew Kent

Time Delay per Ramp Step (s): 0.500

CV Time Delay per Measurement (s) :0.500

AC Voltage (V): 0.500

Current Number of measurements per voltage: 1.000

IV Time Delay per Measurement (s) :0.000


BiasVoltage	LCR_Cp_freq1000.0	LCR_Rp_freq1000.0	Temperature	Air_Temp	Humidity	Dewpoint	
   -5.0000	1.995E-11	1.652E+9	   20.1403	   20.7953	   30.3978	    2.7837	
  -10.0000	1.547E-11	1.897E+9	   20.1403	   20.7953	   30.3978	    2.7837	
  -15.0000	1.343E-11	1.820E+9	   20.0553	   20.8009	   29.6082	    2.4187	
  -20.0000	1.219E-11	2.155E+9	   20.0064	   20.7962	   29.3542	    2.2937	
  -25.0000	1.134E-11	2.397E+9	   20.0064	   20.7962	   29.3542	    2.2937	
  -30.0000	1.073E-11	2.256E+9	   19.8932	   20.7996	   28.8545	    2.0562	
  -35.0000	1.023E-11	2.185E+9	   19.8649	   20.7987	   28.7097	    1.9850	
  -40.0000	9.837E-12	1.957E+9	   19.8623	   20.7988	   28.5930	    1.9282	
  -45.0000	9.510E-12	2.277E+9	   19.8777	   20.8141	   28.4896	    1.8907	
  -50.0000	9.229E-12	2.377E+9	   19.9086	   20.8137	   28.4111	    1.8519	
  -55.0000	8.984E-12	2.213E+9	   19.9627	   20.8074	   28.3185	    1.8008	
  -60.0000	8.770E-12	1.696E+9	   20.0193	   20.8085	   28.2394	    1.7628	
  -65.0000	8.573E-12	2.195E+9	   20.0811	   20.8105	   28.1717	    1.7310	
  -70.0000	8.405E-12	1.968E+9	   20.1351	   20.8242	   28.1293	    1.7217	
  -75.0000	8.259E-12	2.008E+9	   20.1737	   20.8248	   28.0708	    1.6932	
  -80.0000	8.135E-12	2.122E+9	   20.1866	   20.8441	   28.0326	    1.6907	
  -85.0000	8.015E-12	2.078E+9	   20.1815	   20.8296	   27.9798	    1.6520	
  -90.0000	7.906E-12	2.424E+9	   20.1531	   20.8302	   27.9336	    1.6295	
  -95.0000	7.797E-12	2.046E+9	   20.1171	   20.8242	   27.8975	    1.6063	
 -100.0000	7.711E-12	2.199E+9	   20.0682	   20.8141	   27.8672	    1.5825	
 -105.0000	7.622E-12	2.147E+9	   20.0219	   20.8270	   27.8359	    1.5779	
 -110.0000	7.538E-12	2.171E+9	   19.9755	   20.8198	   27.8178	    1.5627	
 -115.0000	7.468E-12	2.285E+9	   19.9369	   20.8284	   27.8011	    1.5616	
 -120.0000	7.392E-12	2.268E+9	   19.9086	   20.8295	   27.7650	    1.5445	
 -125.0000	7.324E-12	2.203E+9	   19.9009	   20.8318	   27.7543	    1.5411	
 -130.0000	7.266E-12	2.130E+9	   19.9061	   20.8281	   27.7543	    1.5379	
 -135.0000	7.203E-12	2.438E+9	   19.9266	   20.8091	   27.7404	    1.5146	
 -140.0000	7.147E-12	2.282E+9	   19.9678	   20.8373	   27.7268	    1.5320	
 -145.0000	7.096E-12	2.521E+9	   19.9678	   20.8373	   27.7268	    1.5320	
 -150.0000	7.046E-12	2.598E+9	   20.0811	   20.8211	   27.7015	    1.5054	
 -155.0000	6.995E-12	2.499E+9	   20.1248	   20.8384	   27.6828	    1.5108	
 -160.0000	6.954E-12	2.457E+9	   20.1480	   20.8546	   27.6809	    1.5237	
 -165.0000	6.912E-12	2.524E+9	   20.1557	   20.8320	   27.6758	    1.5019	
 -170.0000	6.870E-12	2.736E+9	   20.1429	   20.8309	   27.6531	    1.4894	
 -175.0000	6.822E-12	2.490E+9	   20.1094	   20.8304	   27.6556	    1.4902	
 -180.0000	6.793E-12	2.473E+9	   20.0528	   20.8304	   27.6404	    1.4826	
 -185.0000	6.757E-12	2.797E+9	   20.0013	   20.8304	   27.6297	    1.4772	
 -190.0000	6.717E-12	2.270E+9	   19.9575	   20.8333	   27.6278	    1.4788	
 -195.0000	6.676E-12	2.309E+9	   19.9112	   20.8410	   27.6227	    1.4828	
 -200.0000	6.643E-12	2.083E+9	   19.8880	   20.8471	   27.6293	    1.4914	
 -205.0000	6.611E-12	2.217E+9	   19.8803	   20.8382	   27.6259	    1.4820	
 -210.0000	6.575E-12	2.305E+9	   19.9035	   20.8382	   27.6227	    1.4804	
 -215.0000	6.543E-12	2.450E+9	   19.9344	   20.8287	   27.6256	    1.4737	
 -220.0000	6.511E-12	2.368E+9	   19.9781	   20.8230	   27.6148	    1.4634	
 -225.0000	6.481E-12	2.278E+9	   20.0528	   20.8288	   27.6154	    1.4687	
 -230.0000	6.450E-12	2.376E+9	   20.1017	   20.8376	   27.6085	    1.4727	
 -235.0000	6.419E-12	2.236E+9	   20.1351	   20.8269	   27.6053	    1.4619	
 -240.0000	6.402E-12	2.284E+9	   20.1557	   20.8322	   27.6063	    1.4670	
 -245.0000	6.386E-12	2.369E+9	   20.1429	   20.8322	   27.5955	    1.4615	
 -250.0000	6.379E-12	2.685E+9	   20.1429	   20.8322	   27.5955	    1.4615	
 -255.0000	6.373E-12	2.378E+9	   20.0656	   20.8335	   27.5965	    1.4631	
 -260.0000	6.364E-12	2.326E+9	   20.0142	   20.8219	   27.5961	    1.4530	
 -265.0000	6.367E-12	2.455E+9	   19.9678	   20.8154	   27.6053	    1.4521	
 -270.0000	6.356E-12	2.229E+9	   19.9266	   20.8227	   27.6110	    1.4612	
 -275.0000	6.360E-12	2.608E+9	   19.8983	   20.8177	   27.5930	    1.4478	
 -280.0000	6.360E-12	2.489E+9	   19.8829	   20.8144	   27.6053	    1.4512	
 -285.0000	6.360E-12	2.682E+9	   19.8855	   20.8188	   27.6104	    1.4576	
 -290.0000	6.351E-12	2.492E+9	   19.9061	   20.8251	   27.6097	    1.4627	
 -295.0000	6.349E-12	2.581E+9	   19.9395	   20.8248	   27.6224	    1.4688	
 -300.0000	6.349E-12	2.571E+9	   19.9884	   20.8122	   27.6224	    1.4579	
 -305.0000	6.349E-12	2.263E+9	   20.0347	   20.8164	   27.6183	    1.4595	
 -310.0000	6.346E-12	2.280E+9	   20.0837	   20.8200	   27.6085	    1.4576	
 -315.0000	6.346E-12	2.375E+9	   20.1120	   20.8230	   27.6135	    1.4627	
 -320.0000	6.347E-12	2.147E+9	   20.1351	   20.8272	   27.6063	    1.4626	
 -325.0000	6.346E-12	2.503E+9	   20.1326	   20.8184	   27.6075	    1.4557	
 -330.0000	6.345E-12	2.412E+9	   20.1042	   20.8184	   27.5961	    1.4500	
 -335.0000	6.348E-12	2.657E+9	   20.0631	   20.8202	   27.5923	    1.4496	
 -340.0000	6.348E-12	2.474E+9	   20.0064	   20.8202	   27.6037	    1.4554	
 -345.0000	6.339E-12	2.254E+9	   19.9601	   20.8248	   27.5961	    1.4555	
 -350.0000	6.348E-12	2.540E+9	   19.9164	   20.8153	   27.5917	    1.4452	
 -355.0000	6.347E-12	2.384E+9	   19.8906	   20.8153	   27.5904	    1.4445	
 -360.0000	6.342E-12	2.647E+9	   19.8855	   20.8111	   27.5904	    1.4409	
 -365.0000	6.348E-12	2.558E+9	   19.9035	   20.8104	   27.5971	    1.4436	
 -370.0000	6.348E-12	2.493E+9	   19.9369	   20.8100	   27.6059	    1.4478	
 -375.0000	6.343E-12	2.268E+9	   19.9936	   20.8230	   27.6139	    1.4629	
 -380.0000	6.338E-12	2.621E+9	   20.0605	   20.8230	   27.6139	    1.4629	
 -385.0000	6.341E-12	2.595E+9	   20.0605	   20.8243	   27.6075	    1.4608	
 -390.0000	6.349E-12	2.427E+9	   20.1223	   20.8347	   27.6148	    1.4734	
 -395.0000	6.341E-12	2.552E+9	   20.1506	   20.8259	   27.6063	    1.4615	
 -400.0000	6.337E-12	2.312E+9	   20.1403	   20.8298	   27.5860	    1.4547	
 -410.0000	6.344E-12	2.386E+9	   20.1042	   20.8224	   27.5952	    1.4530	
 -420.0000	6.344E-12	2.583E+9	   20.0579	   20.8283	   27.5917	    1.4563	
 -430.0000	6.341E-12	2.298E+9	   20.0193	   20.8259	   27.5911	    1.4539	
 -440.0000	6.342E-12	2.523E+9	   19.9575	   20.8290	   27.5920	    1.4570	
 -450.0000	6.338E-12	2.553E+9	   19.9138	   20.8290	   27.6148	    1.4685	
 -460.0000	6.335E-12	2.397E+9	   19.8906	   20.8171	   27.6373	    1.4696	
 -470.0000	6.342E-12	2.920E+9	   19.8880	   20.8214	   27.6505	    1.4800	
 -480.0000	6.337E-12	2.549E+9	   19.8983	   20.8161	   27.6743	    1.4874	
 -490.0000	6.341E-12	2.194E+9	   19.9241	   20.8201	   27.6774	    1.4925	
 -500.0000	6.340E-12	2.380E+9	   19.9653	   20.8140	   27.6641	    1.4805	
 -510.0000	6.342E-12	2.559E+9	   20.0245	   20.8243	   27.6682	    1.4914	
 -520.0000	6.339E-12	2.583E+9	   20.0837	   20.8243	   27.6841	    1.4994	
 -530.0000	6.335E-12	2.329E+9	   20.1223	   20.8169	   27.6888	    1.4955	
 -540.0000	6.339E-12	2.719E+9	   20.1480	   20.8228	   27.6898	    1.5009	
 -550.0000	6.336E-12	2.344E+9	   20.1429	   20.8210	   27.6727	    1.4908	
 -560.0000	6.335E-12	2.453E+9	   20.1017	   20.8207	   27.6626	    1.4855	
 -570.0000	6.341E-12	2.658E+9	   20.0373	   20.8129	   27.6376	    1.4662	
 -580.0000	6.331E-12	2.723E+9	   19.9884	   20.8110	   27.6350	    1.4633	
 -590.0000	6.339E-12	2.502E+9	   19.9369	   20.8110	   27.6252	    1.4584	
 -600.0000	6.340E-12	2.689E+9	   19.8983	   20.8222	   27.6407	    1.4758	
