GCD Test
Bias: 5000.000000
CV_D0_CO138_LargeDiode_GRConnected_Irradiated_50min
Date/Time: 8/2/2021 3:36:39 PM
Sensor Name: CO138
Type: N
Annealing Status: Irradiated and Annealed at 60C for 50 Minutes
Environment: -20C
Tester: Andrew Kent

Time Delay per Ramp Step (s): 0.500

CV Time Delay per Measurement (s) :0.500

AC Voltage (V): 0.500

Current Number of measurements per voltage: 4.000

IV Time Delay per Measurement (s) :0.000


BiasVoltage	LCR_Cp_freq1000.0	LCR_Cp_freq10000.0	LCR_Rp_freq1000.0	LCR_Rp_freq10000.0	Temperature	Air_Temp	Humidity	Dewpoint	
    1.0000	3.720E-11	2.023E-11	1.752E+6	1.463E+6	  -20.0237	   11.3973	    3.9152	  -29.5249	
    2.0000	4.146E-11	2.027E-11	1.844E+6	1.495E+6	  -20.0084	   11.3933	    3.9127	  -29.5346	
    3.0000	4.377E-11	2.029E-11	1.931E+6	1.522E+6	  -20.0135	   11.4466	    3.9042	  -29.5204	
    4.0000	4.543E-11	2.030E-11	2.002E+6	1.548E+6	  -19.9830	   11.4358	    3.9042	  -29.5279	
    5.0000	4.645E-11	2.031E-11	2.073E+6	1.573E+6	  -19.9880	   11.4267	    3.8903	  -29.5720	
    6.0000	4.732E-11	2.032E-11	2.131E+6	1.597E+6	  -19.9779	   11.4313	    3.8789	  -29.5997	
    7.0000	4.771E-11	2.034E-11	2.196E+6	1.621E+6	  -19.9626	   11.3670	    3.8684	  -29.6731	
    8.0000	4.783E-11	2.037E-11	2.265E+6	1.649E+6	  -19.9550	   11.3688	    3.8457	  -29.7341	
    9.0000	4.765E-11	2.039E-11	2.342E+6	1.678E+6	  -19.9677	   11.3101	    3.8330	  -29.8098	
   10.0000	4.740E-11	2.042E-11	2.426E+6	1.701E+6	  -19.9880	   11.3238	    3.8074	  -29.8709	
   20.0000	4.672E-11	2.059E-11	3.103E+6	1.891E+6	  -19.9982	   11.3397	    3.8147	  -29.8397	
   30.0000	4.568E-11	2.059E-11	3.596E+6	2.049E+6	  -20.0059	   11.3644	    3.7970	  -29.8715	
   40.0000	4.436E-11	2.059E-11	4.041E+6	2.159E+6	  -20.0237	   11.3738	    3.7834	  -29.9027	
   50.0000	4.329E-11	2.057E-11	4.421E+6	2.277E+6	  -20.0287	   11.3251	    3.7650	  -29.9878	
   60.0000	4.227E-11	2.055E-11	4.776E+6	2.384E+6	  -20.0109	   11.3645	    3.7549	  -29.9887	
   70.0000	4.120E-11	2.053E-11	5.119E+6	2.493E+6	  -20.0160	   11.3792	    3.7441	  -30.0085	
   80.0000	4.032E-11	2.051E-11	5.431E+6	2.581E+6	  -20.0135	   11.3341	    3.7258	  -30.0916	
   90.0000	3.951E-11	2.048E-11	5.730E+6	2.695E+6	  -20.0008	   11.3341	    3.7109	  -30.1336	
  100.0000	3.859E-11	2.045E-11	6.047E+6	2.788E+6	  -19.9779	   11.3011	    3.7068	  -30.1682	
  120.0000	3.720E-11	2.040E-11	6.616E+6	2.999E+6	  -19.9830	   11.2826	    3.6983	  -30.2052	
  140.0000	3.597E-11	2.034E-11	7.149E+6	3.213E+6	  -19.9779	   11.2594	    3.6980	  -30.2223	
  160.0000	3.486E-11	2.026E-11	7.677E+6	3.462E+6	  -19.9931	   11.2498	    3.6932	  -30.2425	
  180.0000	3.386E-11	2.020E-11	8.207E+6	3.711E+6	  -20.0008	   11.2510	    3.6768	  -30.2884	
  200.0000	3.287E-11	2.014E-11	8.767E+6	3.993E+6	  -20.0008	   11.1929	    3.6746	  -30.3351	
  220.0000	3.195E-11	2.008E-11	9.340E+6	4.278E+6	  -20.0033	   11.2176	    3.6641	  -30.3478	
  240.0000	3.102E-11	2.003E-11	9.984E+6	4.637E+6	  -20.0135	   11.2630	    3.6540	  -30.3452	
  260.0000	3.010E-11	1.997E-11	1.069E+7	5.046E+6	  -20.0135	   11.2086	    3.6382	  -30.4285	
  280.0000	2.926E-11	1.993E-11	1.145E+7	5.493E+6	  -20.0135	   11.1640	    3.6281	  -30.4886	
  300.0000	2.839E-11	1.988E-11	1.235E+7	5.995E+6	  -20.0135	   11.2531	    3.6173	  -30.4578	
  320.0000	2.756E-11	1.985E-11	1.337E+7	6.596E+6	  -20.0059	   11.2906	    3.6148	  -30.4391	
  340.0000	2.674E-11	1.982E-11	1.457E+7	7.267E+6	  -20.0135	   11.2906	    3.6113	  -30.4492	
  360.0000	2.598E-11	1.979E-11	1.591E+7	8.090E+6	  -20.0109	   11.1631	    3.5958	  -30.5827	
  380.0000	2.525E-11	1.977E-11	1.746E+7	8.962E+6	  -20.0059	   11.2359	    3.5933	  -30.5395	
  400.0000	2.454E-11	1.975E-11	1.927E+7	1.003E+7	  -19.9982	   11.2359	    3.5838	  -30.5672	
  420.0000	2.386E-11	1.973E-11	2.152E+7	1.125E+7	  -20.0033	   11.1201	    3.5854	  -30.6429	
  440.0000	2.325E-11	1.972E-11	2.409E+7	1.259E+7	  -19.9982	   11.1201	    3.5699	  -30.6882	
  460.0000	2.274E-11	1.971E-11	2.692E+7	1.405E+7	  -19.9830	   11.1363	    3.5626	  -30.6982	
  480.0000	2.227E-11	1.971E-11	3.046E+7	1.562E+7	  -19.9855	   11.1022	    3.5525	  -30.7516	
  500.0000	2.190E-11	1.970E-11	3.416E+7	1.733E+7	  -19.9931	   11.0691	    3.5335	  -30.8304	
  520.0000	2.158E-11	1.969E-11	3.841E+7	1.910E+7	  -19.9931	   11.0635	    3.5228	  -30.8661	
  540.0000	2.131E-11	1.969E-11	4.311E+7	2.085E+7	  -20.0008	   11.0475	    3.5266	  -30.8660	
  560.0000	2.110E-11	1.969E-11	4.797E+7	2.260E+7	  -20.0059	   11.0838	    3.5123	  -30.8830	
  580.0000	2.093E-11	1.970E-11	5.247E+7	2.400E+7	  -20.0211	   11.0289	    3.4949	  -30.9727	
  600.0000	2.080E-11	1.971E-11	5.603E+7	2.520E+7	  -19.9931	   11.1106	    3.4902	  -30.9303	
  620.0000	2.070E-11	1.972E-11	5.866E+7	2.610E+7	  -19.9753	   11.0732	    3.4807	  -30.9846	
  640.0000	2.065E-11	1.974E-11	5.967E+7	2.662E+7	  -19.9728	   11.0638	    3.4684	  -31.0280	
  660.0000	2.068E-11	1.976E-11	5.832E+7	2.664E+7	  -19.9830	   10.9794	    3.4665	  -31.0921	
  680.0000	2.078E-11	1.979E-11	5.629E+7	2.580E+7	  -20.0135	   11.0369	    3.4519	  -31.0961	
  700.0000	2.095E-11	1.982E-11	5.441E+7	2.425E+7	  -20.0186	   11.0114	    3.4399	  -31.1500	
  720.0000	2.116E-11	1.987E-11	5.255E+7	2.190E+7	  -20.0415	   11.0659	    3.4399	  -31.1124	
  740.0000	2.136E-11	1.993E-11	5.140E+7	1.950E+7	  -20.0516	   11.0248	    3.4273	  -31.1791	
  760.0000	2.158E-11	2.004E-11	5.004E+7	1.723E+7	  -20.0389	   10.9284	    3.4231	  -31.2581	
  780.0000	2.176E-11	2.017E-11	4.891E+7	1.550E+7	  -20.0313	   11.0075	    3.4096	  -31.2449	
  800.0000	2.185E-11	2.031E-11	4.735E+7	1.438E+7	  -19.9957	   11.0429	    3.4058	  -31.2320	
  820.0000	2.202E-11	2.048E-11	4.560E+7	1.340E+7	  -19.9804	   11.0348	    3.3994	  -31.2569	
  840.0000	2.217E-11	2.064E-11	4.433E+7	1.276E+7	  -19.9702	   11.0024	    3.4020	  -31.2716	
  860.0000	2.232E-11	2.080E-11	4.272E+7	1.237E+7	  -19.9677	   10.9880	    3.4130	  -31.2477	
  880.0000	2.247E-11	2.094E-11	4.100E+7	1.209E+7	  -19.9626	   10.9948	    3.3918	  -31.3078	
  900.0000	2.262E-11	2.108E-11	3.941E+7	1.180E+7	  -19.9677	   10.9928	    3.3820	  -31.3392	
  920.0000	2.281E-11	2.121E-11	3.757E+7	1.152E+7	  -19.9779	   11.0428	    3.3843	  -31.2979	
  940.0000	2.301E-11	2.132E-11	3.602E+7	1.128E+7	  -19.9906	   10.9672	    3.3662	  -31.4055	
  960.0000	2.319E-11	2.143E-11	3.434E+7	1.103E+7	  -19.9906	   10.9675	    3.3637	  -31.4130	
  980.0000	2.338E-11	2.154E-11	3.302E+7	1.068E+7	  -20.0237	   10.9422	    3.3599	  -31.4422	
 1000.0000	2.361E-11	2.164E-11	3.179E+7	1.032E+7	  -20.0237	   10.8274	    3.3593	  -31.5233	
