GCD Test
Bias: 5000.000000
CV_D0_CO138_LargeDiode_GRConnected_Irradiated_40min_at_60C
Date/Time: 8/2/2021 2:29:57 PM
Sensor Name: CO138
Type: N
Annealing Status: Irradiated and Annealed at 60C for 30 Minutes
Environment: RT
Tester: Andrew Kent

Time Delay per Ramp Step (s): 0.500

CV Time Delay per Measurement (s) :0.500

AC Voltage (V): 0.500

Current Number of measurements per voltage: 4.000

IV Time Delay per Measurement (s) :0.000


BiasVoltage	LCR_Cp_freq1000.0	LCR_Cp_freq10000.0	LCR_Rp_freq1000.0	LCR_Rp_freq10000.0	Temperature	Air_Temp	Humidity	Dewpoint	
    1.0000	3.738E-11	2.019E-11	1.714E+6	1.455E+6	  -20.0059	    8.1489	    8.8880	  -22.9678	
    2.0000	4.136E-11	2.024E-11	1.816E+6	1.476E+6	  -19.9855	    8.1263	    8.9001	  -22.9699	
    3.0000	4.402E-11	2.026E-11	1.884E+6	1.506E+6	  -19.9855	    8.1129	    8.9159	  -22.9602	
    4.0000	4.572E-11	2.028E-11	1.953E+6	1.532E+6	  -19.9906	    8.1453	    8.9096	  -22.9434	
    5.0000	4.685E-11	2.029E-11	2.022E+6	1.555E+6	  -19.9931	    8.1657	    8.9077	  -22.9302	
    6.0000	4.729E-11	2.030E-11	2.101E+6	1.582E+6	  -20.0008	    8.1240	    8.9051	  -22.9653	
    7.0000	4.799E-11	2.031E-11	2.155E+6	1.614E+6	  -19.9982	    8.1331	    8.9016	  -22.9627	
    8.0000	4.813E-11	2.035E-11	2.223E+6	1.626E+6	  -19.9931	    8.1546	    8.9032	  -22.9443	
    9.0000	4.827E-11	2.037E-11	2.286E+6	1.662E+6	  -20.0135	    8.1560	    8.9001	  -22.9472	
   10.0000	4.825E-11	2.040E-11	2.358E+6	1.684E+6	  -20.0211	    8.1700	    8.9086	  -22.9257	
   20.0000	4.782E-11	2.058E-11	3.005E+6	1.863E+6	  -20.0262	    8.1636	    8.9064	  -22.9334	
   30.0000	4.679E-11	2.063E-11	3.489E+6	1.987E+6	  -20.0313	    8.1901	    8.9010	  -22.9199	
   40.0000	4.552E-11	2.063E-11	3.921E+6	2.096E+6	  -20.0287	    8.1926	    8.8909	  -22.9309	
   50.0000	4.437E-11	2.062E-11	4.303E+6	2.202E+6	  -20.0237	    8.1926	    8.8950	  -22.9257	
   60.0000	4.333E-11	2.063E-11	4.652E+6	2.281E+6	  -19.9982	    8.1572	    8.9029	  -22.9427	
   70.0000	4.232E-11	2.059E-11	4.984E+6	2.398E+6	  -19.9957	    8.1345	    8.9013	  -22.9620	
   80.0000	4.141E-11	2.058E-11	5.294E+6	2.484E+6	  -19.9753	    8.0989	    8.8960	  -22.9960	
   90.0000	4.046E-11	2.055E-11	5.608E+6	2.588E+6	  -19.9753	    8.0696	    8.9054	  -23.0064	
  100.0000	3.972E-11	2.052E-11	5.887E+6	2.690E+6	  -19.9601	    8.0909	    8.8915	  -23.0077	
  120.0000	3.812E-11	2.046E-11	6.483E+6	2.895E+6	  -19.9753	    8.0815	    8.8852	  -23.0229	
  140.0000	3.688E-11	2.041E-11	7.008E+6	3.083E+6	  -19.9804	    8.1587	    8.8729	  -22.9796	
  160.0000	3.571E-11	2.035E-11	7.539E+6	3.289E+6	  -19.9906	    8.1400	    8.8529	  -23.0190	
  180.0000	3.467E-11	2.030E-11	8.055E+6	3.502E+6	  -19.9931	    8.1471	    8.8571	  -23.0084	
  200.0000	3.377E-11	2.023E-11	8.568E+6	3.759E+6	  -19.9982	    8.0813	    8.8596	  -23.0555	
  220.0000	3.280E-11	2.016E-11	9.136E+6	4.083E+6	  -20.0186	    8.0950	    8.8624	  -23.0414	
  240.0000	3.189E-11	2.011E-11	9.733E+6	4.347E+6	  -20.0186	    8.1057	    8.8472	  -23.0525	
  260.0000	3.105E-11	2.007E-11	1.035E+7	4.673E+6	  -20.0211	    8.0866	    8.8454	  -23.0695	
  280.0000	3.018E-11	2.002E-11	1.105E+7	5.039E+6	  -20.0059	    8.0657	    8.8457	  -23.0850	
  300.0000	2.934E-11	1.998E-11	1.181E+7	5.449E+6	  -20.0033	    8.0657	    8.8327	  -23.1015	
  320.0000	2.853E-11	1.994E-11	1.268E+7	5.920E+6	  -20.0313	    8.0430	    8.8219	  -23.1325	
  340.0000	2.778E-11	1.990E-11	1.364E+7	6.456E+6	  -19.9957	    7.9738	    8.8071	  -23.2043	
  360.0000	2.699E-11	1.987E-11	1.477E+7	7.075E+6	  -20.0008	    8.0102	    8.8109	  -23.1716	
  380.0000	2.628E-11	1.984E-11	1.600E+7	7.848E+6	  -20.0059	    7.9968	    8.8118	  -23.1806	
  400.0000	2.555E-11	1.982E-11	1.747E+7	8.678E+6	  -20.0059	    8.0098	    8.7973	  -23.1893	
  420.0000	2.485E-11	1.980E-11	1.916E+7	9.643E+6	  -19.9957	    8.0098	    8.8001	  -23.1856	
  440.0000	2.419E-11	1.978E-11	2.114E+7	1.078E+7	  -19.9880	    8.0500	    8.8004	  -23.1545	
  460.0000	2.358E-11	1.977E-11	2.347E+7	1.198E+7	  -19.9855	    8.0577	    8.8042	  -23.1438	
  480.0000	2.305E-11	1.976E-11	2.609E+7	1.336E+7	  -20.0008	    8.0375	    8.8039	  -23.1597	
  500.0000	2.256E-11	1.975E-11	2.917E+7	1.481E+7	  -19.9804	    8.0406	    8.7935	  -23.1706	
  520.0000	2.214E-11	1.974E-11	3.276E+7	1.648E+7	  -19.9855	    8.0476	    8.7859	  -23.1750	
  540.0000	2.177E-11	1.973E-11	3.686E+7	1.816E+7	  -19.9906	    8.0067	    8.7799	  -23.2138	
  560.0000	2.148E-11	1.973E-11	4.127E+7	1.989E+7	  -19.9906	    8.0178	    8.7774	  -23.2085	
  580.0000	2.124E-11	1.973E-11	4.566E+7	2.152E+7	  -19.9982	    8.0100	    8.7603	  -23.2364	
  600.0000	2.105E-11	1.973E-11	5.035E+7	2.318E+7	  -20.0033	    8.0116	    8.7653	  -23.2287	
  620.0000	2.090E-11	1.974E-11	5.444E+7	2.442E+7	  -20.0084	    8.0020	    8.7552	  -23.2489	
  640.0000	2.078E-11	1.975E-11	5.789E+7	2.568E+7	  -20.0135	    7.9945	    8.7536	  -23.2566	
  660.0000	2.071E-11	1.976E-11	5.958E+7	2.647E+7	  -20.0287	    8.0205	    8.7350	  -23.2608	
  680.0000	2.068E-11	1.978E-11	5.985E+7	2.684E+7	  -20.0287	    8.0194	    8.7343	  -23.2624	
  700.0000	2.072E-11	1.980E-11	5.862E+7	2.651E+7	  -20.0262	    7.9932	    8.7334	  -23.2836	
  720.0000	2.082E-11	1.983E-11	5.675E+7	2.567E+7	  -20.0084	    8.0310	    8.7106	  -23.2841	
  740.0000	2.099E-11	1.986E-11	5.481E+7	2.388E+7	  -20.0059	    8.0035	    8.6983	  -23.3209	
  760.0000	2.118E-11	1.991E-11	5.325E+7	2.181E+7	  -19.9804	    7.9687	    8.6917	  -23.3560	
  780.0000	2.129E-11	1.997E-11	5.107E+7	1.964E+7	  -19.9804	    8.0687	    8.6837	  -23.2899	
  800.0000	2.147E-11	2.007E-11	4.995E+7	1.753E+7	  -19.9855	    8.0116	    8.6768	  -23.3424	
  820.0000	2.166E-11	2.019E-11	4.860E+7	1.586E+7	  -19.9753	    7.9627	    8.6660	  -23.3936	
  840.0000	2.181E-11	2.033E-11	4.735E+7	1.467E+7	  -19.9855	    7.9681	    8.6749	  -23.3780	
  860.0000	2.199E-11	2.048E-11	4.565E+7	1.376E+7	  -19.9753	    7.9087	    8.6657	  -23.4352	
  880.0000	2.213E-11	2.063E-11	4.419E+7	1.306E+7	  -19.9830	    7.9214	    8.6752	  -23.4132	
  900.0000	2.229E-11	2.078E-11	4.227E+7	1.256E+7	  -20.0033	    7.9476	    8.6667	  -23.4042	
  920.0000	2.246E-11	2.091E-11	4.038E+7	1.220E+7	  -20.0186	    7.9550	    8.6708	  -23.3933	
  940.0000	2.264E-11	2.103E-11	3.875E+7	1.190E+7	  -20.0262	    7.9197	    8.6708	  -23.4202	
  960.0000	2.282E-11	2.117E-11	3.719E+7	1.155E+7	  -20.0287	    7.9706	    8.6749	  -23.3761	
  980.0000	2.303E-11	2.128E-11	3.527E+7	1.121E+7	  -20.0160	    7.9537	    8.6856	  -23.3751	
 1000.0000	2.326E-11	2.139E-11	3.399E+7	1.088E+7	  -20.0084	    7.9348	    8.6882	  -23.3863	
 1020.0000	2.348E-11	2.152E-11	3.241E+7	1.047E+7	  -19.9982	    7.9483	    8.6879	  -23.3764	
 1040.0000	2.373E-11	2.161E-11	3.116E+7	1.005E+7	  -19.9982	    7.9531	    8.6812	  -23.3813	
 1060.0000	2.397E-11	2.172E-11	2.991E+7	9.646E+6	  -19.9880	    7.9608	    8.6913	  -23.3624	
 1080.0000	2.423E-11	2.185E-11	2.867E+7	9.206E+6	  -19.9906	    7.8394	    8.6799	  -23.4696	
 1100.0000	2.453E-11	2.198E-11	2.705E+7	8.729E+6	  -19.9880	    7.8530	    8.6771	  -23.4629	
