GCD Test
Bias: 5000.000000
IV_37398_031_PSS_HM_XX_DIODEHALFPSTOP
Date/Time: 11/8/2021 5:15:59 PM
Sensor Name: DIODEHALFPSTOP
Type: P
Annealing Status: Not Irradiated and not Annealed
Environment: 20C
Tester: Andrew Kent

Time Delay per Ramp Step (s): 0.500

CV Time Delay per Measurement (s) :0.500

AC Voltage (V): 0.500

Current Number of measurements per voltage: 1.000

IV Time Delay per Measurement (s) :0.000


BiasVoltage	Total Current_Avg	Total Current_0	Bias Current_Avg	Bias Current_0	Temperature	Air_Temp	Humidity	Dewpoint	
   -5.0000	-9.5000E-11	-9.5000E-11	-6.344759E-11	-6.344759E-11	   20.0708	   21.6975	    6.8251	  -15.8991	
  -10.0000	-7.0000E-12	-7.0000E-12	-6.496463E-11	-6.496463E-11	   20.0708	   21.6970	    6.7827	  -15.9740	
  -15.0000	-5.5000E-11	-5.5000E-11	-7.089978E-11	-7.089978E-11	   20.0708	   21.6979	    6.7467	  -16.0372	
  -20.0000	-6.3000E-11	-6.3000E-11	-7.255921E-11	-7.255921E-11	   20.0708	   21.6967	    6.7075	  -16.1079	
  -25.0000	-1.1100E-10	-1.1100E-10	-7.365394E-11	-7.365394E-11	   20.0708	   21.6970	    6.6793	  -16.1579	
  -30.0000	-1.4200E-10	-1.4200E-10	-7.470511E-11	-7.470511E-11	   20.0708	   21.6946	    6.6578	  -16.1982	
  -35.0000	-2.3000E-10	-2.3000E-10	-7.517854E-11	-7.517854E-11	   20.0734	   21.7035	    6.6392	  -16.2253	
  -40.0000	-2.3800E-10	-2.3800E-10	-7.638491E-11	-7.638491E-11	   20.0734	   21.6986	    6.6227	  -16.2585	
  -45.0000	-1.8100E-10	-1.8100E-10	-7.778462E-11	-7.778462E-11	   20.0734	   21.7006	    6.6214	  -16.2593	
  -50.0000	-1.3200E-10	-1.3200E-10	-7.869539E-11	-7.869539E-11	   20.0734	   21.7008	    6.6031	  -16.2923	
  -55.0000	-2.1400E-10	-2.1400E-10	-8.008124E-11	-8.008124E-11	   20.0708	   21.6951	    6.5901	  -16.3199	
  -60.0000	-2.9300E-10	-2.9300E-10	-8.145916E-11	-8.145916E-11	   20.0708	   21.7029	    6.5829	  -16.3274	
  -65.0000	-3.0300E-10	-3.0300E-10	-8.305750E-11	-8.305750E-11	   20.0708	   21.6999	    6.5743	  -16.3451	
  -70.0000	-3.0900E-10	-3.0900E-10	-8.455599E-11	-8.455599E-11	   20.0708	   21.7008	    6.5731	  -16.3468	
  -75.0000	-2.3300E-10	-2.3300E-10	-8.667377E-11	-8.667377E-11	   20.0708	   21.7008	    6.5626	  -16.3468	
  -80.0000	-1.9600E-10	-1.9600E-10	-8.849922E-11	-8.849922E-11	   20.0708	   21.7034	    6.5626	  -16.3638	
  -85.0000	-2.9700E-10	-2.9700E-10	-9.154591E-11	-9.154591E-11	   20.0734	   21.7019	    6.5547	  -16.3793	
  -90.0000	-2.1800E-10	-2.1800E-10	-9.554113E-11	-9.554113E-11	   20.0734	   21.7019	    6.5553	  -16.3793	
  -95.0000	-3.4600E-10	-3.4600E-10	-1.004290E-10	-1.004290E-10	   20.0734	   21.7026	    6.5541	  -16.3776	
 -100.0000	-2.4400E-10	-2.4400E-10	-1.045495E-10	-1.045495E-10	   20.0734	   21.7001	    6.5557	  -16.3818	
 -105.0000	-2.5200E-10	-2.5200E-10	-1.066680E-10	-1.066680E-10	   20.0708	   21.6959	    6.5497	  -16.3819	
 -110.0000	-2.9800E-10	-2.9800E-10	-1.073993E-10	-1.073993E-10	   20.0708	   21.7015	    6.5509	  -16.3888	
 -115.0000	-2.4600E-10	-2.4600E-10	-1.088003E-10	-1.088003E-10	   20.0734	   21.6995	    6.5550	  -16.3879	
 -120.0000	-2.8900E-10	-2.8900E-10	-1.091148E-10	-1.091148E-10	   20.0734	   21.6969	    6.5550	  -16.3823	
 -125.0000	-3.2900E-10	-3.2900E-10	-1.097186E-10	-1.097186E-10	   20.0708	   21.6949	    6.5515	  -16.3901	
 -130.0000	-3.4200E-10	-3.4200E-10	-1.104444E-10	-1.104444E-10	   20.0708	   21.6953	    6.5553	  -16.3830	
 -135.0000	-2.5900E-10	-2.5900E-10	-1.114473E-10	-1.114473E-10	   20.0734	   21.6987	    6.5629	  -16.3667	
 -140.0000	-3.9900E-10	-3.9900E-10	-1.115864E-10	-1.115864E-10	   20.0734	   21.6943	    6.5402	  -16.4113	
 -145.0000	-2.8700E-10	-2.8700E-10	-1.121947E-10	-1.121947E-10	   20.0708	   21.6940	    6.5506	  -16.3926	
 -150.0000	-3.0500E-10	-3.0500E-10	-1.125661E-10	-1.125661E-10	   20.0708	   21.6895	    6.5544	  -16.3889	
 -155.0000	-2.9500E-10	-2.9500E-10	-1.140715E-10	-1.140715E-10	   20.0708	   21.6930	    6.5512	  -16.3921	
 -160.0000	-3.7800E-10	-3.7800E-10	-1.141219E-10	-1.141219E-10	   20.0708	   21.6916	    6.5534	  -16.3891	
 -165.0000	-3.0400E-10	-3.0400E-10	-1.145297E-10	-1.145297E-10	   20.0708	   21.6965	    6.5538	  -16.3849	
 -170.0000	-3.2200E-10	-3.2200E-10	-1.150594E-10	-1.150594E-10	   20.0708	   21.6900	    6.5531	  -16.3908	
 -175.0000	-3.1200E-10	-3.1200E-10	-1.158715E-10	-1.158715E-10	   20.0708	   21.6928	    6.5538	  -16.3876	
 -180.0000	-3.6000E-10	-3.6000E-10	-1.157184E-10	-1.157184E-10	   20.0708	   21.6918	    6.5563	  -16.3838	
 -185.0000	-3.7400E-10	-3.7400E-10	-1.169086E-10	-1.169086E-10	   20.0708	   21.6912	    6.5544	  -16.3877	
 -190.0000	-3.7800E-10	-3.7800E-10	-1.174797E-10	-1.174797E-10	   20.0708	   21.6926	    6.5528	  -16.3895	
 -195.0000	-3.8400E-10	-3.8400E-10	-1.179949E-10	-1.179949E-10	   20.0708	   21.6893	    6.5471	  -16.4023	
 -200.0000	-3.4900E-10	-3.4900E-10	-1.187879E-10	-1.187879E-10	   20.0708	   21.6913	    6.5452	  -16.4043	
 -205.0000	-3.9900E-10	-3.9900E-10	-1.200132E-10	-1.200132E-10	   20.0708	   21.6896	    6.5544	  -16.3888	
 -210.0000	-4.6000E-10	-4.6000E-10	-1.214782E-10	-1.214782E-10	   20.0708	   21.6958	    6.5497	  -16.3930	
 -215.0000	-4.2200E-10	-4.2200E-10	-1.226223E-10	-1.226223E-10	   20.0682	   21.6910	    6.5446	  -16.4057	
 -220.0000	-3.6400E-10	-3.6400E-10	-1.238262E-10	-1.238262E-10	   20.0682	   21.6918	    6.5446	  -16.4051	
 -225.0000	-4.5300E-10	-4.5300E-10	-1.250659E-10	-1.250659E-10	   20.0682	   21.6928	    6.5503	  -16.3939	
 -230.0000	-3.7800E-10	-3.7800E-10	-1.273973E-10	-1.273973E-10	   20.0682	   21.6873	    6.5519	  -16.3951	
 -235.0000	-4.0100E-10	-4.0100E-10	-1.289601E-10	-1.289601E-10	   20.0682	   21.6907	    6.5503	  -16.3955	
 -240.0000	-3.8700E-10	-3.8700E-10	-1.306316E-10	-1.306316E-10	   20.0682	   21.6894	    6.5452	  -16.4057	
 -245.0000	-4.1000E-10	-4.1000E-10	-1.325139E-10	-1.325139E-10	   20.0682	   21.6882	    6.5414	  -16.4135	
 -250.0000	-4.0200E-10	-4.0200E-10	-1.346024E-10	-1.346024E-10	   20.0682	   21.6854	    6.5522	  -16.3959	
 -255.0000	-4.0700E-10	-4.0700E-10	-1.370210E-10	-1.370210E-10	   20.0656	   21.6851	    6.5531	  -16.3944	
 -260.0000	-4.6300E-10	-4.6300E-10	-1.388987E-10	-1.388987E-10	   20.0682	   21.6851	    6.5531	  -16.3944	
 -265.0000	-5.2100E-10	-5.2100E-10	-1.403665E-10	-1.403665E-10	   20.0656	   21.6807	    6.5417	  -16.4103	
 -270.0000	-4.3300E-10	-4.3300E-10	-1.417341E-10	-1.417341E-10	   20.0656	   21.6807	    6.5455	  -16.4184	
 -275.0000	-4.8600E-10	-4.8600E-10	-1.435581E-10	-1.435581E-10	   20.0682	   21.6856	    6.5332	  -16.4079	
 -280.0000	-4.7500E-10	-4.7500E-10	-1.444651E-10	-1.444651E-10	   20.0682	   21.6870	    6.5332	  -16.4293	
 -285.0000	-4.6800E-10	-4.6800E-10	-1.464643E-10	-1.464643E-10	   20.0682	   21.6835	    6.5446	  -16.4111	
 -290.0000	-4.9800E-10	-4.9800E-10	-1.476938E-10	-1.476938E-10	   20.0656	   21.6853	    6.5424	  -16.4138	
 -295.0000	-4.5100E-10	-4.5100E-10	-1.485043E-10	-1.485043E-10	   20.0656	   21.6839	    6.5383	  -16.4224	
 -300.0000	-5.1100E-10	-5.1100E-10	-1.497007E-10	-1.497007E-10	   20.0656	   21.6851	    6.5383	  -16.4215	
 -305.0000	-4.6600E-10	-4.6600E-10	-1.510658E-10	-1.510658E-10	   20.0656	   21.6822	    6.5430	  -16.4149	
 -310.0000	-5.2400E-10	-5.2400E-10	-1.520285E-10	-1.520285E-10	   20.0656	   21.6798	    6.5421	  -16.4184	
 -315.0000	-5.9500E-10	-5.9500E-10	-1.532066E-10	-1.532066E-10	   20.0656	   21.6807	    6.5380	  -16.4252	
 -320.0000	-5.6100E-10	-5.6100E-10	-1.537843E-10	-1.537843E-10	   20.0631	   21.6781	    6.5459	  -16.4127	
 -325.0000	-5.4200E-10	-5.4200E-10	-1.548670E-10	-1.548670E-10	   20.0656	   21.6788	    6.5436	  -16.4163	
 -330.0000	-6.2400E-10	-6.2400E-10	-1.554138E-10	-1.554138E-10	   20.0656	   21.6787	    6.5389	  -16.4250	
 -335.0000	-5.7900E-10	-5.7900E-10	-1.564541E-10	-1.564541E-10	   20.0656	   21.6724	    6.5380	  -16.4313	
 -340.0000	-5.6000E-10	-5.6000E-10	-1.570033E-10	-1.570033E-10	   20.0656	   21.6722	    6.5351	  -16.4367	
 -345.0000	-5.9900E-10	-5.9900E-10	-1.585234E-10	-1.585234E-10	   20.0656	   21.6721	    6.5345	  -16.4379	
 -350.0000	-6.3200E-10	-6.3200E-10	-1.590016E-10	-1.590016E-10	   20.0656	   21.6736	    6.5313	  -16.4426	
 -355.0000	-6.2400E-10	-6.2400E-10	-1.591914E-10	-1.591914E-10	   20.0656	   21.6777	    6.5370	  -16.4292	
 -360.0000	-5.1600E-10	-5.1600E-10	-1.602273E-10	-1.602273E-10	   20.0631	   21.6800	    6.5373	  -16.4269	
 -365.0000	-6.4600E-10	-6.4600E-10	-1.608853E-10	-1.608853E-10	   20.0631	   21.6697	    6.5297	  -16.4483	
 -370.0000	-6.5800E-10	-6.5800E-10	-1.615117E-10	-1.615117E-10	   20.0631	   21.6702	    6.5297	  -16.4479	
 -375.0000	-5.6000E-10	-5.6000E-10	-1.620788E-10	-1.620788E-10	   20.0656	   21.6686	    6.5244	  -16.4589	
 -380.0000	-5.3200E-10	-5.3200E-10	-1.626391E-10	-1.626391E-10	   20.0631	   21.6734	    6.5266	  -16.4514	
 -385.0000	-6.3300E-10	-6.3300E-10	-1.636067E-10	-1.636067E-10	   20.0631	   21.6763	    6.5256	  -16.4510	
 -390.0000	-6.7900E-10	-6.7900E-10	-1.644920E-10	-1.644920E-10	   20.0631	   21.6744	    6.5171	  -16.4680	
 -395.0000	-6.8300E-10	-6.8300E-10	-1.645887E-10	-1.645887E-10	   20.0656	   21.6744	    6.5202	  -16.4680	
 -400.0000	-6.7500E-10	-6.7500E-10	-1.656260E-10	-1.656260E-10	   20.0656	   21.6738	    6.5202	  -16.4626	
 -410.0000	-7.4100E-10	-7.4100E-10	-1.664268E-10	-1.664268E-10	   20.0631	   21.6687	    6.5145	  -16.4768	
 -420.0000	-7.5800E-10	-7.5800E-10	-1.675862E-10	-1.675862E-10	   20.0605	   21.6718	    6.5133	  -16.4768	
 -430.0000	-8.0100E-10	-8.0100E-10	-1.683746E-10	-1.683746E-10	   20.0631	   21.6718	    6.5139	  -16.4768	
 -440.0000	-8.1300E-10	-8.1300E-10	-1.700867E-10	-1.700867E-10	   20.0631	   21.6722	    6.5139	  -16.4754	
 -450.0000	-7.5200E-10	-7.5200E-10	-1.703369E-10	-1.703369E-10	   20.0631	   21.6706	    6.5104	  -16.4829	
 -460.0000	-8.2000E-10	-8.2000E-10	-1.709583E-10	-1.709583E-10	   20.0631	   21.6751	    6.5101	  -16.4577	
 -470.0000	-8.5600E-10	-8.5600E-10	-1.720704E-10	-1.720704E-10	   20.0605	   21.6751	    6.5104	  -16.4803	
 -480.0000	-8.3100E-10	-8.3100E-10	-1.726920E-10	-1.726920E-10	   20.0631	   21.6729	    6.5114	  -16.4812	
 -490.0000	-7.9500E-10	-7.9500E-10	-1.737826E-10	-1.737826E-10	   20.0631	   21.6735	    6.5032	  -16.4791	
 -500.0000	-8.9900E-10	-8.9900E-10	-1.747633E-10	-1.747633E-10	   20.0631	   21.6738	    6.5016	  -16.4939	
 -510.0000	-9.4900E-10	-9.4900E-10	-1.753003E-10	-1.753003E-10	   20.0631	   21.6718	    6.5016	  -16.4982	
 -520.0000	-9.5900E-10	-9.5900E-10	-1.765510E-10	-1.765510E-10	   20.0605	   21.6749	    6.5006	  -16.4977	
 -530.0000	-9.6500E-10	-9.6500E-10	-1.773256E-10	-1.773256E-10	   20.0631	   21.6720	    6.4953	  -16.5098	
 -540.0000	-9.9100E-10	-9.9100E-10	-1.780785E-10	-1.780785E-10	   20.0631	   21.6761	    6.5016	  -16.4951	
 -550.0000	-8.8700E-10	-8.8700E-10	-1.784782E-10	-1.784782E-10	   20.0631	   21.6709	    6.5006	  -16.5007	
 -560.0000	-9.3000E-10	-9.3000E-10	-1.793301E-10	-1.793301E-10	   20.0605	   21.6754	    6.4994	  -16.4997	
 -570.0000	-9.1800E-10	-9.1800E-10	-1.805468E-10	-1.805468E-10	   20.0605	   21.6736	    6.4975	  -16.5045	
 -580.0000	-9.5500E-10	-9.5500E-10	-1.812274E-10	-1.812274E-10	   20.0605	   21.6721	    6.4972	  -16.5062	
 -590.0000	-9.1300E-10	-9.1300E-10	-1.814538E-10	-1.814538E-10	   20.0631	   21.6707	    6.4991	  -16.5037	
 -600.0000	-9.7700E-10	-9.7700E-10	-1.829786E-10	-1.829786E-10	   20.0605	   21.6736	    6.4927	  -16.5132	
 -610.0000	-9.7800E-10	-9.7800E-10	-1.836758E-10	-1.836758E-10	   20.0605	   21.6759	    6.4839	  -16.5278	
 -620.0000	-9.5000E-10	-9.5000E-10	-1.841493E-10	-1.841493E-10	   20.0605	   21.6781	    6.4880	  -16.5186	
 -630.0000	-9.6800E-10	-9.6800E-10	-1.850897E-10	-1.850897E-10	   20.0631	   21.6754	    6.4845	  -16.5270	
 -640.0000	-1.0950E-9	-1.0950E-9	-1.860840E-10	-1.860840E-10	   20.0631	   21.6756	    6.4867	  -16.5228	
 -650.0000	-9.9400E-10	-9.9400E-10	-1.866896E-10	-1.866896E-10	   20.0631	   21.6756	    6.4848	  -16.5228	
 -660.0000	-1.0180E-9	-1.0180E-9	-1.874702E-10	-1.874702E-10	   20.0605	   21.6798	    6.4817	  -16.5232	
 -670.0000	-1.0460E-9	-1.0460E-9	-1.885304E-10	-1.885304E-10	   20.0605	   21.6765	    6.4817	  -16.5314	
 -680.0000	-1.0620E-9	-1.0620E-9	-1.898556E-10	-1.898556E-10	   20.0631	   21.6768	    6.4775	  -16.5388	
 -690.0000	-1.0760E-9	-1.0760E-9	-1.906088E-10	-1.906088E-10	   20.0631	   21.6775	    6.4820	  -16.5301	
 -700.0000	-1.0360E-9	-1.0360E-9	-1.917684E-10	-1.917684E-10	   20.0605	   21.6786	    6.4756	  -16.5410	
 -710.0000	-1.0950E-9	-1.0950E-9	-1.927171E-10	-1.927171E-10	   20.0605	   21.6780	    6.4725	  -16.5472	
 -720.0000	-1.1060E-9	-1.1060E-9	-1.935642E-10	-1.935642E-10	   20.0605	   21.6755	    6.4766	  -16.5415	
 -730.0000	-1.1000E-9	-1.1000E-9	-1.943308E-10	-1.943308E-10	   20.0631	   21.6722	    6.4738	  -16.5491	
 -740.0000	-1.1150E-9	-1.1150E-9	-1.956794E-10	-1.956794E-10	   20.0605	   21.6736	    6.4715	  -16.5521	
 -750.0000	-1.1240E-9	-1.1240E-9	-1.969797E-10	-1.969797E-10	   20.0605	   21.6788	    6.4769	  -16.5384	
 -760.0000	-1.1360E-9	-1.1360E-9	-1.980865E-10	-1.980865E-10	   20.0605	   21.6781	    6.4753	  -16.5419	
 -770.0000	-1.1920E-9	-1.1920E-9	-1.991626E-10	-1.991626E-10	   20.0605	   21.6781	    6.4614	  -16.5419	
 -780.0000	-1.1610E-9	-1.1610E-9	-2.005725E-10	-2.005725E-10	   20.0631	   21.6799	    6.4541	  -16.5662	
 -790.0000	-1.1690E-9	-1.1690E-9	-2.026481E-10	-2.026481E-10	   20.0631	   21.6805	    6.4541	  -16.5792	
 -800.0000	-1.1820E-9	-1.1820E-9	-2.043289E-10	-2.043289E-10	   20.0631	   21.6808	    6.4639	  -16.5609	
 -810.0000	-1.1950E-9	-1.1950E-9	-2.055162E-10	-2.055162E-10	   20.0631	   21.6801	    6.4652	  -16.5590	
 -820.0000	-1.2050E-9	-1.2050E-9	-2.073467E-10	-2.073467E-10	   20.0631	   21.6769	    6.4649	  -16.5620	
 -830.0000	-1.2000E-9	-1.2000E-9	-2.094609E-10	-2.094609E-10	   20.0631	   21.6788	    6.4617	  -16.5665	
 -840.0000	-1.2470E-9	-1.2470E-9	-2.114517E-10	-2.114517E-10	   20.0631	   21.6752	    6.4624	  -16.5679	
 -850.0000	-1.1940E-9	-1.1940E-9	-2.132174E-10	-2.132174E-10	   20.0631	   21.6778	    6.4545	  -16.5806	
 -860.0000	-1.2510E-9	-1.2510E-9	-2.160333E-10	-2.160333E-10	   20.0631	   21.6778	    6.4522	  -16.5806	
 -870.0000	-1.2590E-9	-1.2590E-9	-2.178315E-10	-2.178315E-10	   20.0631	   21.6804	    6.4522	  -16.5828	
 -880.0000	-1.2700E-9	-1.2700E-9	-2.204576E-10	-2.204576E-10	   20.0605	   21.6749	    6.4576	  -16.5769	
 -890.0000	-1.2930E-9	-1.2930E-9	-2.231624E-10	-2.231624E-10	   20.0605	   21.6765	    6.4570	  -16.5768	
 -900.0000	-1.3030E-9	-1.3030E-9	-2.257339E-10	-2.257339E-10	   20.0631	   21.6825	    6.4586	  -16.5696	
 -910.0000	-1.3050E-9	-1.3050E-9	-2.281809E-10	-2.281809E-10	   20.0631	   21.6814	    6.4541	  -16.5785	
 -920.0000	-1.3280E-9	-1.3280E-9	-2.318419E-10	-2.318419E-10	   20.0631	   21.6778	    6.4532	  -16.5829	
 -930.0000	-1.2830E-9	-1.2830E-9	-2.344890E-10	-2.344890E-10	   20.0605	   21.6808	    6.4462	  -16.5936	
 -940.0000	-1.3380E-9	-1.3380E-9	-2.378648E-10	-2.378648E-10	   20.0631	   21.6787	    6.4532	  -16.5822	
 -950.0000	-1.3860E-9	-1.3860E-9	-2.414563E-10	-2.414563E-10	   20.0631	   21.6802	    6.4551	  -16.5777	
 -960.0000	-1.3940E-9	-1.3940E-9	-2.452811E-10	-2.452811E-10	   20.0631	   21.6864	    6.4579	  -16.5679	
 -970.0000	-1.4020E-9	-1.4020E-9	-2.492607E-10	-2.492607E-10	   20.0631	   21.6784	    6.4605	  -16.5690	
 -980.0000	-1.4170E-9	-1.4170E-9	-2.535792E-10	-2.535792E-10	   20.0605	   21.6842	    6.4513	  -16.5817	
 -990.0000	-1.4170E-9	-1.4170E-9	-2.586343E-10	-2.586343E-10	   20.0631	   21.6794	    6.4589	  -16.5713	
-1000.0000	-1.5540E-9	-1.5540E-9	-2.637268E-10	-2.637268E-10	   20.0631	   21.6814	    6.4535	  -16.5797	
