GCD Test
Bias: 5000.000000
IV_38874_011_2-S_HM_XX_DIODEQUARTER
Date/Time: 3/9/2022 11:20:55 AM
Sensor Name: 
Type: P
Annealing Status: Unirradiated
Environment: 20C
Tester: Andrew Kent

Time Delay per Ramp Step (s): 0.500

CV Time Delay per Measurement (s) :0.500

AC Voltage (V): 0.500

Current Number of measurements per voltage: 1.000

IV Time Delay per Measurement (s) :0.000


BiasVoltage	Total Current_Avg	Total Current_0	Bias Current_Avg	Bias Current_0	Temperature	Air_Temp	Humidity	Dewpoint	
  -10.0000	 1.7940E-9	 1.7940E-9	-4.697057E-11	-4.697057E-11	   20.1789	   21.9582	   18.1961	   -3.2929	
  -20.0000	 1.4410E-9	 1.4410E-9	-5.105788E-11	-5.105788E-11	   20.1789	   21.9518	   18.1961	   -3.2862	
  -30.0000	 1.1270E-9	 1.1270E-9	-5.526741E-11	-5.526741E-11	   20.1763	   21.9484	   18.1863	   -3.2962	
  -40.0000	9.3400E-10	9.3400E-10	-6.155684E-11	-6.155684E-11	   20.1737	   21.9518	   18.2043	   -3.2802	
  -50.0000	8.1300E-10	8.1300E-10	-6.826672E-11	-6.826672E-11	   20.1686	   21.9512	   18.2056	   -3.2798	
  -60.0000	6.5200E-10	6.5200E-10	-7.198021E-11	-7.198021E-11	   20.1634	   21.9558	   18.2113	   -3.2718	
  -70.0000	5.3200E-10	5.3200E-10	-7.353435E-11	-7.353435E-11	   20.1583	   21.9461	   18.2116	   -3.2795	
  -80.0000	4.3300E-10	4.3300E-10	-7.445470E-11	-7.445470E-11	   20.1531	   21.9480	   18.2078	   -3.2807	
  -90.0000	2.5700E-10	2.5700E-10	-7.537058E-11	-7.537058E-11	   20.1454	   21.9497	   18.2201	   -3.2703	
 -100.0000	1.6600E-10	1.6600E-10	-7.612576E-11	-7.612576E-11	   20.1403	   21.9497	   18.2182	   -3.2703	
 -110.0000	1.3200E-10	1.3200E-10	-7.688421E-11	-7.688421E-11	   20.1351	   21.9505	   18.2185	   -3.2710	
 -120.0000	8.2000E-11	8.2000E-11	-7.776792E-11	-7.776792E-11	   20.1326	   21.9479	   18.2255	   -3.2729	
 -130.0000	5.5000E-11	5.5000E-11	-7.825334E-11	-7.825334E-11	   20.1326	   21.9500	   18.2255	   -3.2661	
 -140.0000	1.0100E-10	1.0100E-10	-7.839571E-11	-7.839571E-11	   20.1274	   21.9526	   18.2283	   -3.2619	
 -150.0000	5.7000E-11	5.7000E-11	-7.928821E-11	-7.928821E-11	   20.1223	   21.9478	   18.2283	   -3.2657	
 -160.0000	-1.2000E-10	-1.2000E-10	-8.005359E-11	-8.005359E-11	   20.1197	   21.9496	   18.2381	   -3.2571	
 -170.0000	-7.5000E-11	-7.5000E-11	-8.109310E-11	-8.109310E-11	   20.1171	   21.9475	   18.2324	   -3.2630	
 -180.0000	-1.9500E-10	-1.9500E-10	-8.220780E-11	-8.220780E-11	   20.1120	   21.9432	   18.2375	   -3.2628	
 -190.0000	-2.2800E-10	-2.2800E-10	-8.390857E-11	-8.390857E-11	   20.1094	   21.9422	   18.2394	   -3.2623	
 -200.0000	-1.4900E-10	-1.4900E-10	-8.565768E-11	-8.565768E-11	   20.1042	   21.9394	   18.2312	   -3.2705	
 -210.0000	-2.2200E-10	-2.2200E-10	-8.707982E-11	-8.707982E-11	   20.1017	   21.9484	   18.2426	   -3.2549	
 -220.0000	-1.9900E-10	-1.9900E-10	-8.853800E-11	-8.853800E-11	   20.0991	   21.9441	   18.2438	   -3.2574	
 -230.0000	-3.5600E-10	-3.5600E-10	-9.015545E-11	-9.015545E-11	   20.0939	   21.9452	   18.2498	   -3.2521	
 -240.0000	-3.8100E-10	-3.8100E-10	-9.111841E-11	-9.111841E-11	   20.0914	   21.9416	   18.2378	   -3.2639	
 -250.0000	-3.0000E-10	-3.0000E-10	-9.172757E-11	-9.172757E-11	   20.0888	   21.9427	   18.2426	   -3.2595	
 -260.0000	-2.9400E-10	-2.9400E-10	-9.287628E-11	-9.287628E-11	   20.0862	   21.9416	   18.2486	   -3.2560	
 -270.0000	-3.3600E-10	-3.3600E-10	-9.355994E-11	-9.355994E-11	   20.0837	   21.9436	   18.2356	   -3.2639	
 -280.0000	-3.4400E-10	-3.4400E-10	-9.447520E-11	-9.447520E-11	   20.0785	   21.9411	   18.2407	   -3.2622	
 -290.0000	-3.7700E-10	-3.7700E-10	-9.586101E-11	-9.586101E-11	   20.0759	   21.9446	   18.2315	   -3.2660	
 -300.0000	-4.1700E-10	-4.1700E-10	-9.670949E-11	-9.670949E-11	   20.0734	   21.9385	   18.2362	   -3.2675	
 -310.0000	-4.1100E-10	-4.1100E-10	-9.678326E-11	-9.678326E-11	   20.0708	   21.9416	   18.2309	   -3.2690	
 -320.0000	-5.4200E-10	-5.4200E-10	-9.776149E-11	-9.776149E-11	   20.0656	   21.9416	   18.2432	   -3.2690	
 -330.0000	-5.7000E-10	-5.7000E-10	-9.782302E-11	-9.782302E-11	   20.0631	   21.9385	   18.2347	   -3.2625	
 -340.0000	-4.7000E-10	-4.7000E-10	-9.899112E-11	-9.899112E-11	   20.0605	   21.9389	   18.2347	   -3.2684	
 -350.0000	-4.7900E-10	-4.7900E-10	-9.915229E-11	-9.915229E-11	   20.0553	   21.9388	   18.2356	   -3.2668	
 -360.0000	-6.3300E-10	-6.3300E-10	-9.984468E-11	-9.984468E-11	   20.0553	   21.9388	   18.2277	   -3.2678	
 -370.0000	-6.4900E-10	-6.4900E-10	-1.005501E-10	-1.005501E-10	   20.0553	   21.9380	   18.2277	   -3.2743	
 -380.0000	-5.3900E-10	-5.3900E-10	-1.009148E-10	-1.009148E-10	   20.0528	   21.9355	   18.2207	   -3.2814	
 -390.0000	-6.5800E-10	-6.5800E-10	-1.013735E-10	-1.013735E-10	   20.0476	   21.9416	   18.2170	   -3.2792	
 -400.0000	-6.8500E-10	-6.8500E-10	-1.018148E-10	-1.018148E-10	   20.0450	   21.9423	   18.2109	   -3.2830	
 -420.0000	-7.8900E-10	-7.8900E-10	-1.032689E-10	-1.032689E-10	   20.0450	   21.9391	   18.2163	   -3.2817	
 -440.0000	-7.9800E-10	-7.9800E-10	-1.039257E-10	-1.039257E-10	   20.0399	   21.9373	   18.2151	   -3.2841	
 -460.0000	-8.5900E-10	-8.5900E-10	-1.049112E-10	-1.049112E-10	   20.0399	   21.9372	   18.2090	   -3.2886	
 -480.0000	-9.3900E-10	-9.3900E-10	-1.060159E-10	-1.060159E-10	   20.0373	   21.9331	   18.2024	   -3.2968	
 -500.0000	-9.5500E-10	-9.5500E-10	-1.068477E-10	-1.068477E-10	   20.0347	   21.9379	   18.1951	   -3.2983	
 -520.0000	-1.0080E-9	-1.0080E-9	-1.075713E-10	-1.075713E-10	   20.0322	   21.9353	   18.1904	   -3.3038	
 -540.0000	-1.0570E-9	-1.0570E-9	-1.085367E-10	-1.085367E-10	   20.0296	   21.9378	   18.1856	   -3.3053	
 -560.0000	-1.1730E-9	-1.1730E-9	-1.089714E-10	-1.089714E-10	   20.0296	   21.9342	   18.1733	   -3.3174	
 -580.0000	-1.1780E-9	-1.1780E-9	-1.102224E-10	-1.102224E-10	   20.0270	   21.9323	   18.1762	   -3.3168	
 -600.0000	-1.3620E-9	-1.3620E-9	-1.108296E-10	-1.108296E-10	   20.0245	   21.9353	   18.1752	   -3.3151	
 -620.0000	-1.3620E-9	-1.3620E-9	-1.118130E-10	-1.118130E-10	   20.0219	   21.9321	   18.1695	   -3.3218	
 -640.0000	-1.3790E-9	-1.3790E-9	-1.125374E-10	-1.125374E-10	   20.0219	   21.9352	   18.1632	   -3.3240	
 -660.0000	-1.4290E-9	-1.4290E-9	-1.135804E-10	-1.135804E-10	   20.0219	   21.9352	   18.1632	   -3.3240	
 -680.0000	-1.4560E-9	-1.4560E-9	-1.138721E-10	-1.138721E-10	   20.0167	   21.9352	   18.1531	   -3.3314	
 -700.0000	-1.4650E-9	-1.4650E-9	-1.151162E-10	-1.151162E-10	   20.0167	   21.9331	   18.1550	   -3.3318	
 -720.0000	-1.5000E-9	-1.5000E-9	-1.153900E-10	-1.153900E-10	   20.0142	   21.9314	   18.1439	   -3.3413	
 -740.0000	-1.5660E-9	-1.5660E-9	-1.166711E-10	-1.166711E-10	   20.0116	   21.9314	   18.1373	   -3.3462	
 -760.0000	-1.5350E-9	-1.5350E-9	-1.178183E-10	-1.178183E-10	   20.0090	   21.9314	   18.1287	   -3.3462	
 -780.0000	-1.5560E-9	-1.5560E-9	-1.183636E-10	-1.183636E-10	   20.0090	   21.9314	   18.1287	   -3.3525	
 -800.0000	-1.6670E-9	-1.6670E-9	-1.196189E-10	-1.196189E-10	   20.0090	   21.9308	   18.1256	   -3.3553	
 -820.0000	-1.6510E-9	-1.6510E-9	-1.204239E-10	-1.204239E-10	   20.0064	   21.9308	   18.1221	   -3.3553	
 -840.0000	-1.6590E-9	-1.6590E-9	-1.217735E-10	-1.217735E-10	   20.0064	   21.9283	   18.1221	   -3.3598	
 -860.0000	-1.7100E-9	-1.7100E-9	-1.234770E-10	-1.234770E-10	   20.0064	   21.9325	   18.1195	   -3.3583	
 -880.0000	-1.7190E-9	-1.7190E-9	-1.250555E-10	-1.250555E-10	   20.0039	   21.9309	   18.1176	   -3.3610	
 -900.0000	-1.7150E-9	-1.7150E-9	-1.272977E-10	-1.272977E-10	   20.0064	   21.9320	   18.1230	   -3.3561	
 -920.0000	-1.8690E-9	-1.8690E-9	-1.289324E-10	-1.289324E-10	   20.0064	   21.9320	   18.1230	   -3.3561	
 -940.0000	-1.8920E-9	-1.8920E-9	-1.309423E-10	-1.309423E-10	   20.0013	   21.9282	   18.1088	   -3.3697	
 -960.0000	-1.9360E-9	-1.9360E-9	-1.336286E-10	-1.336286E-10	   20.0039	   21.9261	   18.0993	   -3.3785	
 -980.0000	-1.9080E-9	-1.9080E-9	-1.369021E-10	-1.369021E-10	   20.0039	   21.9261	   18.0993	   -3.3785	
-1000.0000	-1.9670E-9	-1.9670E-9	-1.396312E-10	-1.396312E-10	   20.0013	   21.9283	   18.0917	   -3.3823	
