GCD Test
Bias: 5000.000000
IV_38874_011_2-S_HM_XX_DIODEHALFPSTOP
Date/Time: 3/9/2022 10:56:39 AM
Sensor Name: 
Type: P
Annealing Status: Unirradiated
Environment: 20C
Tester: Andrew Kent

Time Delay per Ramp Step (s): 0.500

CV Time Delay per Measurement (s) :0.500

AC Voltage (V): 0.500

Current Number of measurements per voltage: 1.000

IV Time Delay per Measurement (s) :0.000


BiasVoltage	Total Current_Avg	Total Current_0	Bias Current_Avg	Bias Current_0	Temperature	Air_Temp	Humidity	Dewpoint	
  -10.0000	2.6900E-10	2.6900E-10	-6.898991E-11	-6.898991E-11	   19.9601	   21.9955	   17.8577	   -3.5015	
  -20.0000	7.2000E-11	7.2000E-11	-8.227966E-11	-8.227966E-11	   19.9575	   21.9902	   17.8757	   -3.4923	
  -30.0000	2.4700E-10	2.4700E-10	-8.636575E-11	-8.636575E-11	   19.9601	   21.9928	   17.8855	   -3.4829	
  -40.0000	1.9400E-10	1.9400E-10	-8.947384E-11	-8.947384E-11	   19.9575	   21.9953	   17.8893	   -3.4781	
  -50.0000	-1.3200E-10	-1.3200E-10	-9.389383E-11	-9.389383E-11	   19.9627	   21.9953	   17.8880	   -3.4781	
  -60.0000	1.1400E-10	1.1400E-10	-9.468182E-11	-9.468182E-11	   19.9627	   21.9953	   17.8880	   -3.4790	
  -70.0000	-1.7500E-10	-1.7500E-10	-9.965714E-11	-9.965714E-11	   19.9575	   21.9879	   17.8994	   -3.4765	
  -80.0000	-6.7000E-11	-6.7000E-11	-1.039482E-10	-1.039482E-10	   19.9575	   21.9893	   17.9137	   -3.4648	
  -90.0000	-2.9900E-10	-2.9900E-10	-1.106095E-10	-1.106095E-10	   19.9575	   21.9893	   17.9194	   -3.4648	
 -100.0000	-3.0400E-10	-3.0400E-10	-1.174305E-10	-1.174305E-10	   19.9575	   21.9887	   17.9194	   -3.4610	
 -110.0000	-2.9400E-10	-2.9400E-10	-1.236923E-10	-1.236923E-10	   19.9575	   21.9887	   17.9168	   -3.4610	
 -120.0000	-4.0200E-10	-4.0200E-10	-1.258083E-10	-1.258083E-10	   19.9575	   21.9907	   17.9168	   -3.4612	
 -130.0000	-5.2600E-10	-5.2600E-10	-1.279073E-10	-1.279073E-10	   19.9575	   21.9901	   17.9301	   -3.4519	
 -140.0000	-2.2600E-10	-2.2600E-10	-1.300278E-10	-1.300278E-10	   19.9575	   21.9901	   17.9380	   -3.4519	
 -150.0000	-4.8300E-10	-4.8300E-10	-1.315368E-10	-1.315368E-10	   19.9575	   21.9901	   17.9380	   -3.4460	
 -160.0000	-5.2000E-10	-5.2000E-10	-1.341319E-10	-1.341319E-10	   19.9575	   21.9885	   17.9421	   -3.4442	
 -170.0000	-2.7900E-10	-2.7900E-10	-1.378419E-10	-1.378419E-10	   19.9575	   21.9886	   17.9380	   -3.4472	
 -180.0000	-5.7400E-10	-5.7400E-10	-1.403450E-10	-1.403450E-10	   19.9575	   21.9886	   17.9396	   -3.4472	
 -190.0000	-4.5300E-10	-4.5300E-10	-1.470238E-10	-1.470238E-10	   19.9575	   21.9855	   17.9396	   -3.4485	
 -200.0000	-4.8800E-10	-4.8800E-10	-1.525434E-10	-1.525434E-10	   19.9575	   21.9855	   17.9349	   -3.4485	
 -210.0000	-4.7600E-10	-4.7600E-10	-1.578447E-10	-1.578447E-10	   19.9575	   21.9888	   17.9349	   -3.4494	
 -220.0000	-4.6000E-10	-4.6000E-10	-1.616138E-10	-1.616138E-10	   19.9575	   21.9854	   17.9488	   -3.4418	
 -230.0000	-6.1200E-10	-6.1200E-10	-1.650926E-10	-1.650926E-10	   19.9575	   21.9854	   17.9541	   -3.4418	
 -240.0000	-7.5500E-10	-7.5500E-10	-1.683830E-10	-1.683830E-10	   19.9575	   21.9854	   17.9541	   -3.4378	
 -250.0000	-5.8900E-10	-5.8900E-10	-1.699344E-10	-1.699344E-10	   19.9575	   21.9876	   17.9583	   -3.4329	
 -260.0000	-7.9300E-10	-7.9300E-10	-1.709175E-10	-1.709175E-10	   19.9575	   21.9859	   17.9693	   -3.4261	
 -270.0000	-5.4700E-10	-5.4700E-10	-1.738015E-10	-1.738015E-10	   19.9575	   21.9823	   17.9608	   -3.4354	
 -280.0000	-5.7000E-10	-5.7000E-10	-1.775627E-10	-1.775627E-10	   19.9550	   21.9823	   17.9719	   -3.4354	
 -290.0000	-6.8600E-10	-6.8600E-10	-1.806399E-10	-1.806399E-10	   19.9550	   21.9850	   17.9719	   -3.4249	
 -300.0000	-8.8900E-10	-8.8900E-10	-1.817158E-10	-1.817158E-10	   19.9550	   21.9845	   17.9753	   -3.4228	
 -310.0000	-9.1600E-10	-9.1600E-10	-1.819128E-10	-1.819128E-10	   19.9550	   21.9845	   17.9753	   -3.4228	
 -320.0000	-8.9800E-10	-8.9800E-10	-1.837558E-10	-1.837558E-10	   19.9575	   21.9797	   17.9785	   -3.4243	
 -330.0000	-9.2500E-10	-9.2500E-10	-1.856061E-10	-1.856061E-10	   19.9575	   21.9797	   17.9760	   -3.4243	
 -340.0000	-9.9500E-10	-9.9500E-10	-1.877541E-10	-1.877541E-10	   19.9575	   21.9881	   17.9760	   -3.4194	
 -350.0000	-9.3500E-10	-9.3500E-10	-1.895438E-10	-1.895438E-10	   19.9550	   21.9844	   17.9836	   -3.4167	
 -360.0000	-7.6100E-10	-7.6100E-10	-1.910479E-10	-1.910479E-10	   19.9550	   21.9798	   17.9820	   -3.4217	
 -370.0000	-1.0580E-9	-1.0580E-9	-1.927352E-10	-1.927352E-10	   19.9550	   21.9798	   18.0006	   -3.4217	
 -380.0000	-1.0900E-9	-1.0900E-9	-1.930405E-10	-1.930405E-10	   19.9550	   21.9810	   18.0006	   -3.4068	
 -390.0000	-1.0680E-9	-1.0680E-9	-1.956914E-10	-1.956914E-10	   19.9550	   21.9832	   17.9899	   -3.4130	
 -400.0000	-9.5300E-10	-9.5300E-10	-1.963064E-10	-1.963064E-10	   19.9550	   21.9832	   17.9899	   -3.4130	
 -420.0000	-1.3330E-9	-1.3330E-9	-1.995507E-10	-1.995507E-10	   19.9550	   21.9810	   18.0101	   -3.3998	
 -440.0000	-1.3310E-9	-1.3310E-9	-2.018780E-10	-2.018780E-10	   19.9550	   21.9810	   18.0079	   -3.3998	
 -460.0000	-1.5100E-9	-1.5100E-9	-2.018878E-10	-2.018878E-10	   19.9550	   21.9859	   18.0079	   -3.3974	
 -480.0000	-1.3060E-9	-1.3060E-9	-2.061413E-10	-2.061413E-10	   19.9524	   21.9859	   18.0079	   -3.3974	
 -500.0000	-1.5020E-9	-1.5020E-9	-2.074514E-10	-2.074514E-10	   19.9524	   21.9761	   18.0079	   -3.4054	
 -520.0000	-1.6680E-9	-1.6680E-9	-2.094297E-10	-2.094297E-10	   19.9524	   21.9783	   18.0332	   -3.3849	
 -540.0000	-1.4810E-9	-1.4810E-9	-2.125530E-10	-2.125530E-10	   19.9524	   21.9783	   18.0247	   -3.3849	
 -560.0000	-1.6860E-9	-1.6860E-9	-2.142555E-10	-2.142555E-10	   19.9524	   21.9769	   18.0247	   -3.3923	
 -580.0000	-1.8300E-9	-1.8300E-9	-2.148920E-10	-2.148920E-10	   19.9524	   21.9769	   18.0424	   -3.3923	
 -600.0000	-1.7680E-9	-1.7680E-9	-2.179738E-10	-2.179738E-10	   19.9524	   21.9775	   18.0424	   -3.3787	
 -620.0000	-1.8300E-9	-1.8300E-9	-2.189411E-10	-2.189411E-10	   19.9524	   21.9804	   18.0256	   -3.3887	
 -640.0000	-1.8500E-9	-1.8500E-9	-2.201125E-10	-2.201125E-10	   19.9524	   21.9804	   18.0436	   -3.3887	
 -660.0000	-1.7230E-9	-1.7230E-9	-2.240812E-10	-2.240812E-10	   19.9524	   21.9804	   18.0436	   -3.3754	
 -680.0000	-1.9390E-9	-1.9390E-9	-2.248337E-10	-2.248337E-10	   19.9524	   21.9786	   18.0512	   -3.3713	
 -700.0000	-2.0880E-9	-2.0880E-9	-2.261045E-10	-2.261045E-10	   19.9524	   21.9786	   18.0398	   -3.3713	
 -720.0000	-1.8780E-9	-1.8780E-9	-2.274846E-10	-2.274846E-10	   19.9524	   21.9786	   18.0398	   -3.3797	
 -740.0000	-2.0190E-9	-2.0190E-9	-2.293317E-10	-2.293317E-10	   19.9524	   21.9747	   18.0449	   -3.3791	
 -760.0000	-2.0830E-9	-2.0830E-9	-2.317290E-10	-2.317290E-10	   19.9524	   21.9766	   18.0614	   -3.3654	
 -780.0000	-2.1160E-9	-2.1160E-9	-2.333832E-10	-2.333832E-10	   19.9498	   21.9753	   18.0582	   -3.3687	
 -800.0000	-1.9510E-9	-1.9510E-9	-2.348456E-10	-2.348456E-10	   19.9524	   21.9753	   18.0708	   -3.3687	
 -820.0000	-2.1890E-9	-2.1890E-9	-2.378228E-10	-2.378228E-10	   19.9524	   21.9763	   18.0708	   -3.3586	
 -840.0000	-2.3330E-9	-2.3330E-9	-2.395195E-10	-2.395195E-10	   19.9524	   21.9763	   18.0677	   -3.3586	
 -860.0000	-2.0280E-9	-2.0280E-9	-2.420660E-10	-2.420660E-10	   19.9524	   21.9723	   18.0677	   -3.3642	
 -880.0000	-2.1540E-9	-2.1540E-9	-2.448870E-10	-2.448870E-10	   19.9498	   21.9760	   18.0772	   -3.3542	
 -900.0000	-2.1880E-9	-2.1880E-9	-2.490991E-10	-2.490991E-10	   19.9498	   21.9760	   18.0781	   -3.3542	
 -920.0000	-2.3930E-9	-2.3930E-9	-2.509436E-10	-2.509436E-10	   19.9498	   21.9695	   18.0781	   -3.3588	
 -940.0000	-2.1440E-9	-2.1440E-9	-2.524071E-10	-2.524071E-10	   19.9498	   21.9695	   18.0860	   -3.3588	
 -960.0000	-2.2610E-9	-2.2610E-9	-2.557801E-10	-2.557801E-10	   19.9498	   21.9699	   18.0860	   -3.3526	
 -980.0000	-2.2990E-9	-2.2990E-9	-2.602660E-10	-2.602660E-10	   19.9498	   21.9691	   18.0857	   -3.3535	
-1000.0000	-2.3200E-9	-2.3200E-9	-3.431079E-10	-3.431079E-10	   19.9498	   21.9691	   18.0990	   -3.3535	
