GCD Test
Bias: 5000.000000
IV_37399_049_PSS_HM_XX_DIODEHALFPSTOP
Date/Time: 11/3/2021 6:58:12 PM
Sensor Name: DIODEHALFPSTOP
Type: P
Annealing Status: Not Irradiated and Not Annealed
Environment: 20C
Tester: Andrew Kent

Time Delay per Ramp Step (s): 0.500

CV Time Delay per Measurement (s) :0.500

AC Voltage (V): 0.500

Current Number of measurements per voltage: 1.000

IV Time Delay per Measurement (s) :0.000


BiasVoltage	Total Current_Avg	Total Current_0	Bias Current_Avg	Bias Current_0	Temperature	Air_Temp	Humidity	Dewpoint	
   -5.0000	2.4200E-10	2.4200E-10	-5.573402E-11	-5.573402E-11	   19.9936	   21.3629	    7.9222	  -14.3473	
  -10.0000	3.0400E-10	3.0400E-10	-5.760656E-11	-5.760656E-11	   19.9961	   21.3663	    7.6720	  -14.7340	
  -15.0000	1.3500E-10	1.3500E-10	-6.271200E-11	-6.271200E-11	   20.0013	   21.3663	    7.5111	  -14.7340	
  -20.0000	1.0800E-10	1.0800E-10	-6.395282E-11	-6.395282E-11	   20.0039	   21.3663	    7.4133	  -14.9905	
  -25.0000	2.4000E-10	2.4000E-10	-6.552629E-11	-6.552629E-11	   20.0039	   21.3638	    7.3169	  -15.1505	
  -30.0000	1.2200E-10	1.2200E-10	-6.502577E-11	-6.502577E-11	   20.0090	   21.3623	    7.2328	  -15.3095	
  -35.0000	2.7000E-11	2.7000E-11	-6.711320E-11	-6.711320E-11	   20.0090	   21.3620	    7.2328	  -15.4489	
  -40.0000	8.6000E-11	8.6000E-11	-6.822546E-11	-6.822546E-11	   20.0064	   21.3643	    7.1486	  -15.5879	
  -45.0000	-1.9000E-11	-1.9000E-11	-7.048075E-11	-7.048075E-11	   20.0064	   21.3638	    7.0886	  -15.6897	
  -50.0000	-2.4000E-11	-2.4000E-11	-7.095990E-11	-7.095990E-11	   20.0064	   21.3640	    7.0408	  -15.7707	
  -55.0000	-1.1000E-11	-1.1000E-11	-7.311926E-11	-7.311926E-11	   20.0039	   21.3600	    6.9959	  -15.8504	
  -60.0000	7.1000E-11	7.1000E-11	-7.525904E-11	-7.525904E-11	   19.9987	   21.3646	    6.9681	  -15.8947	
  -65.0000	-7.1000E-11	-7.1000E-11	-7.964478E-11	-7.964478E-11	   19.9961	   21.3632	    6.9209	  -15.9771	
  -70.0000	-3.0000E-11	-3.0000E-11	-8.594115E-11	-8.594115E-11	   19.9910	   21.3657	    6.8896	  -16.0295	
  -75.0000	-1.2100E-10	-1.2100E-10	-9.077669E-11	-9.077669E-11	   19.9936	   21.3710	    6.8640	  -16.0702	
  -80.0000	-1.4200E-10	-1.4200E-10	-9.369222E-11	-9.369222E-11	   19.9910	   21.3659	    6.8412	  -16.1137	
  -85.0000	-2.1400E-10	-2.1400E-10	-9.501839E-11	-9.501839E-11	   19.9910	   21.3669	    6.8178	  -16.1540	
  -90.0000	-1.8000E-10	-1.8000E-10	-9.529380E-11	-9.529380E-11	   19.9961	   21.3665	    6.7995	  -16.1865	
  -95.0000	-2.3500E-10	-2.3500E-10	-9.577333E-11	-9.577333E-11	   19.9961	   21.3708	    6.7894	  -16.2011	
 -100.0000	-7.4000E-11	-7.4000E-11	-9.648712E-11	-9.648712E-11	   20.0013	   21.3676	    6.7625	  -16.2509	
 -105.0000	-8.5000E-11	-8.5000E-11	-9.699212E-11	-9.699212E-11	   20.0039	   21.3672	    6.7524	  -16.2691	
 -110.0000	-9.7000E-11	-9.7000E-11	-9.747188E-11	-9.747188E-11	   20.0064	   21.3643	    6.7369	  -16.2986	
 -115.0000	-2.0900E-10	-2.0900E-10	-9.793534E-11	-9.793534E-11	   20.0090	   21.3677	    6.7290	  -16.3102	
 -120.0000	-2.2000E-10	-2.2000E-10	-9.846622E-11	-9.846622E-11	   20.0090	   21.3670	    6.7195	  -16.3275	
 -125.0000	-2.2400E-10	-2.2400E-10	-9.902949E-11	-9.902949E-11	   20.0090	   21.3689	    6.7078	  -16.3469	
 -130.0000	-1.2500E-10	-1.2500E-10	-9.946240E-11	-9.946240E-11	   20.0090	   21.3711	    6.7024	  -16.3549	
 -135.0000	-1.5200E-10	-1.5200E-10	-9.963941E-11	-9.963941E-11	   20.0039	   21.3699	    6.6869	  -16.3834	
 -140.0000	-1.8700E-10	-1.8700E-10	-9.966607E-11	-9.966607E-11	   20.0013	   21.3674	    6.6828	  -16.3926	
 -145.0000	-1.4500E-10	-1.4500E-10	-1.004679E-10	-1.004679E-10	   19.9961	   21.3648	    6.6717	  -16.4142	
 -150.0000	-1.9400E-10	-1.9400E-10	-1.012512E-10	-1.012512E-10	   19.9961	   21.3648	    6.6717	  -16.4142	
 -155.0000	-2.6700E-10	-2.6700E-10	-1.011654E-10	-1.011654E-10	   19.9936	   21.3664	    6.6689	  -16.4181	
 -160.0000	-2.9800E-10	-2.9800E-10	-1.019165E-10	-1.019165E-10	   19.9910	   21.3649	    6.6654	  -16.4255	
 -165.0000	-2.2500E-10	-2.2500E-10	-1.016107E-10	-1.016107E-10	   19.9936	   21.3649	    6.6654	  -16.4255	
 -170.0000	-2.1600E-10	-2.1600E-10	-1.021671E-10	-1.021671E-10	   19.9961	   21.3674	    6.6543	  -16.4367	
 -175.0000	-2.0200E-10	-2.0200E-10	-1.026645E-10	-1.026645E-10	   20.0013	   21.3674	    6.6452	  -16.4435	
 -180.0000	-2.8100E-10	-2.8100E-10	-1.031194E-10	-1.031194E-10	   20.0039	   21.3706	    6.6505	  -16.4576	
 -185.0000	-3.5100E-10	-3.5100E-10	-1.030530E-10	-1.030530E-10	   20.0039	   21.3689	    6.6505	  -16.4492	
 -190.0000	-3.2400E-10	-3.2400E-10	-1.040424E-10	-1.040424E-10	   20.0090	   21.3702	    6.6429	  -16.4619	
 -195.0000	-3.4400E-10	-3.4400E-10	-1.044097E-10	-1.044097E-10	   20.0090	   21.3698	    6.6584	  -16.4343	
 -200.0000	-2.6600E-10	-2.6600E-10	-1.051782E-10	-1.051782E-10	   20.0116	   21.3696	    6.6363	  -16.4742	
 -205.0000	-3.1200E-10	-3.1200E-10	-1.052225E-10	-1.052225E-10	   20.0090	   21.3697	    6.6467	  -16.4554	
 -210.0000	-3.4900E-10	-3.4900E-10	-1.063898E-10	-1.063898E-10	   20.0064	   21.3697	    6.6363	  -16.4554	
 -215.0000	-3.0200E-10	-3.0200E-10	-1.070804E-10	-1.070804E-10	   20.0064	   21.3698	    6.6363	  -16.4740	
 -220.0000	-2.8000E-10	-2.8000E-10	-1.077808E-10	-1.077808E-10	   20.0039	   21.3702	    6.6414	  -16.4646	
 -225.0000	-3.8800E-10	-3.8800E-10	-1.089922E-10	-1.089922E-10	   19.9987	   21.3717	    6.6417	  -16.4630	
 -230.0000	-4.1100E-10	-4.1100E-10	-1.105769E-10	-1.105769E-10	   19.9961	   21.3655	    6.6357	  -16.4784	
 -235.0000	-3.7000E-10	-3.7000E-10	-1.124083E-10	-1.124083E-10	   19.9961	   21.3680	    6.6360	  -16.4759	
 -240.0000	-4.0600E-10	-4.0600E-10	-1.138846E-10	-1.138846E-10	   19.9936	   21.3656	    6.6306	  -16.4874	
 -245.0000	-3.7600E-10	-3.7600E-10	-1.160040E-10	-1.160040E-10	   19.9936	   21.3689	    6.6243	  -16.4963	
 -250.0000	-3.7400E-10	-3.7400E-10	-1.176543E-10	-1.176543E-10	   19.9961	   21.3689	    6.6243	  -16.4963	
 -255.0000	-3.3000E-10	-3.3000E-10	-1.191088E-10	-1.191088E-10	   19.9987	   21.3695	    6.6249	  -16.4959	
 -260.0000	-4.5200E-10	-4.5200E-10	-1.209354E-10	-1.209354E-10	   20.0013	   21.3631	    6.6297	  -16.4994	
 -265.0000	-3.4200E-10	-3.4200E-10	-1.227068E-10	-1.227068E-10	   20.0064	   21.3671	    6.6246	  -16.4880	
 -270.0000	-3.5000E-10	-3.5000E-10	-1.234849E-10	-1.234849E-10	   20.0064	   21.3634	    6.6341	  -16.4998	
 -275.0000	-4.5800E-10	-4.5800E-10	-1.249377E-10	-1.249377E-10	   20.0064	   21.3670	    6.6284	  -16.4800	
 -280.0000	-3.8000E-10	-3.8000E-10	-1.260931E-10	-1.260931E-10	   20.0064	   21.3677	    6.6363	  -16.4898	
 -285.0000	-3.6500E-10	-3.6500E-10	-1.271799E-10	-1.271799E-10	   20.0064	   21.3632	    6.6230	  -16.4789	
 -290.0000	-3.8700E-10	-3.8700E-10	-1.280208E-10	-1.280208E-10	   20.0039	   21.3682	    6.6237	  -16.4991	
 -295.0000	-4.4600E-10	-4.4600E-10	-1.288404E-10	-1.288404E-10	   20.0039	   21.3642	    6.6287	  -16.5009	
 -300.0000	-4.7200E-10	-4.7200E-10	-1.299634E-10	-1.299634E-10	   20.0013	   21.3630	    6.6268	  -16.4927	
 -305.0000	-5.3600E-10	-5.3600E-10	-1.306251E-10	-1.306251E-10	   19.9987	   21.3650	    6.6249	  -16.4946	
 -310.0000	-4.6500E-10	-4.6500E-10	-1.311674E-10	-1.311674E-10	   19.9961	   21.3647	    6.6249	  -16.4982	
 -315.0000	-4.2000E-10	-4.2000E-10	-1.320914E-10	-1.320914E-10	   19.9936	   21.3645	    6.6167	  -16.5200	
 -320.0000	-4.5700E-10	-4.5700E-10	-1.324208E-10	-1.324208E-10	   19.9936	   21.3645	    6.6319	  -16.5132	
 -325.0000	-5.2100E-10	-5.2100E-10	-1.331456E-10	-1.331456E-10	   19.9936	   21.3627	    6.6230	  -16.4872	
 -330.0000	-5.4300E-10	-5.4300E-10	-1.337362E-10	-1.337362E-10	   19.9936	   21.3651	    6.6218	  -16.5014	
 -335.0000	-5.7000E-10	-5.7000E-10	-1.345592E-10	-1.345592E-10	   19.9961	   21.3624	    6.6211	  -16.5056	
 -340.0000	-5.6500E-10	-5.6500E-10	-1.351214E-10	-1.351214E-10	   19.9987	   21.3660	    6.6268	  -16.5041	
 -345.0000	-5.7700E-10	-5.7700E-10	-1.356890E-10	-1.356890E-10	   19.9987	   21.3629	    6.6268	  -16.4962	
 -350.0000	-4.4900E-10	-4.4900E-10	-1.366246E-10	-1.366246E-10	   20.0013	   21.3682	    6.6237	  -16.4979	
 -355.0000	-5.2700E-10	-5.2700E-10	-1.371612E-10	-1.371612E-10	   20.0064	   21.3688	    6.6211	  -16.5021	
 -360.0000	-5.8800E-10	-5.8800E-10	-1.377654E-10	-1.377654E-10	   20.0064	   21.3657	    6.6202	  -16.5061	
 -365.0000	-4.6800E-10	-4.6800E-10	-1.381470E-10	-1.381470E-10	   20.0090	   21.3642	    6.6180	  -16.5111	
 -370.0000	-6.0000E-10	-6.0000E-10	-1.387640E-10	-1.387640E-10	   20.0090	   21.3667	    6.6202	  -16.5053	
 -375.0000	-4.7700E-10	-4.7700E-10	-1.394919E-10	-1.394919E-10	   20.0090	   21.3657	    6.6240	  -16.4992	
 -380.0000	-4.8500E-10	-4.8500E-10	-1.393501E-10	-1.393501E-10	   20.0039	   21.3665	    6.6268	  -16.4936	
 -385.0000	-6.0300E-10	-6.0300E-10	-1.399015E-10	-1.399015E-10	   20.0013	   21.3673	    6.6164	  -16.5118	
 -390.0000	-5.9100E-10	-5.9100E-10	-1.403886E-10	-1.403886E-10	   19.9987	   21.3698	    6.6214	  -16.5008	
 -395.0000	-6.2100E-10	-6.2100E-10	-1.410252E-10	-1.410252E-10	   19.9961	   21.3672	    6.6183	  -16.5084	
 -400.0000	-6.2100E-10	-6.2100E-10	-1.417182E-10	-1.417182E-10	   19.9936	   21.3655	    6.6199	  -16.5068	
 -410.0000	-6.6900E-10	-6.6900E-10	-1.427202E-10	-1.427202E-10	   19.9936	   21.3693	    6.6167	  -16.5097	
 -420.0000	-7.1500E-10	-7.1500E-10	-1.435394E-10	-1.435394E-10	   19.9936	   21.3661	    6.6157	  -16.5137	
 -430.0000	-6.7700E-10	-6.7700E-10	-1.443573E-10	-1.443573E-10	   19.9961	   21.3678	    6.6195	  -16.5057	
 -440.0000	-7.3300E-10	-7.3300E-10	-1.446496E-10	-1.446496E-10	   19.9987	   21.3713	    6.6227	  -16.4974	
 -450.0000	-7.8700E-10	-7.8700E-10	-1.456298E-10	-1.456298E-10	   19.9987	   21.3704	    6.6085	  -16.5237	
 -460.0000	-8.1300E-10	-8.1300E-10	-1.464523E-10	-1.464523E-10	   20.0039	   21.3656	    6.6170	  -16.5119	
 -470.0000	-7.7000E-10	-7.7000E-10	-1.471101E-10	-1.471101E-10	   20.0064	   21.3682	    6.6208	  -16.5031	
 -480.0000	-8.0100E-10	-8.0100E-10	-1.481602E-10	-1.481602E-10	   20.0090	   21.3661	    6.6139	  -16.5172	
 -490.0000	-8.6200E-10	-8.6200E-10	-1.484148E-10	-1.484148E-10	   20.0090	   21.3669	    6.6205	  -16.5046	
 -500.0000	-8.8800E-10	-8.8800E-10	-1.494497E-10	-1.494497E-10	   20.0090	   21.3637	    6.6202	  -16.5075	
 -510.0000	-9.0100E-10	-9.0100E-10	-1.498423E-10	-1.498423E-10	   20.0090	   21.3673	    6.6164	  -16.5117	
 -520.0000	-9.2400E-10	-9.2400E-10	-1.506663E-10	-1.506663E-10	   20.0039	   21.3665	    6.6195	  -16.5066	
 -530.0000	-9.2400E-10	-9.2400E-10	-1.515838E-10	-1.515838E-10	   20.0013	   21.3676	    6.6176	  -16.5092	
 -540.0000	-8.8900E-10	-8.8900E-10	-1.519690E-10	-1.519690E-10	   19.9987	   21.3680	    6.6157	  -16.5124	
 -550.0000	-8.7200E-10	-8.7200E-10	-1.526460E-10	-1.526460E-10	   19.9961	   21.3655	    6.6180	  -16.5102	
 -560.0000	-8.3700E-10	-8.3700E-10	-1.531324E-10	-1.531324E-10	   19.9936	   21.3713	    6.6142	  -16.5128	
 -570.0000	-9.0100E-10	-9.0100E-10	-1.543557E-10	-1.543557E-10	   19.9961	   21.3670	    6.6199	  -16.5056	
 -580.0000	-8.9100E-10	-8.9100E-10	-1.549226E-10	-1.549226E-10	   19.9936	   21.3697	    6.6047	  -16.5311	
 -590.0000	-9.5800E-10	-9.5800E-10	-1.555929E-10	-1.555929E-10	   19.9961	   21.3673	    6.6126	  -16.5186	
 -600.0000	-8.8800E-10	-8.8800E-10	-1.563845E-10	-1.563845E-10	   19.9961	   21.3685	    6.6195	  -16.5051	
 -610.0000	-9.0600E-10	-9.0600E-10	-1.573232E-10	-1.573232E-10	   20.0013	   21.3701	    6.6132	  -16.5154	
 -620.0000	-1.0340E-9	-1.0340E-9	-1.580806E-10	-1.580806E-10	   20.0039	   21.3715	    6.6113	  -16.5177	
 -630.0000	-9.9000E-10	-9.9000E-10	-1.590511E-10	-1.590511E-10	   20.0064	   21.3745	    6.6183	  -16.5030	
 -640.0000	-9.8500E-10	-9.8500E-10	-1.595001E-10	-1.595001E-10	   20.0090	   21.3745	    6.6183	  -16.5030	
 -650.0000	-9.5100E-10	-9.5100E-10	-1.605459E-10	-1.605459E-10	   20.0090	   21.3777	    6.6148	  -16.5070	
 -660.0000	-1.0890E-9	-1.0890E-9	-1.609279E-10	-1.609279E-10	   20.0064	   21.3708	    6.6148	  -16.4887	
 -670.0000	-9.9000E-10	-9.9000E-10	-1.617763E-10	-1.617763E-10	   20.0064	   21.3708	    6.6189	  -16.5120	
 -680.0000	-9.7300E-10	-9.7300E-10	-1.625474E-10	-1.625474E-10	   20.0039	   21.3731	    6.6129	  -16.5029	
 -690.0000	-1.0720E-9	-1.0720E-9	-1.634401E-10	-1.634401E-10	   19.9987	   21.3704	    6.6195	  -16.5157	
 -700.0000	-1.1310E-9	-1.1310E-9	-1.644063E-10	-1.644063E-10	   19.9987	   21.3730	    6.6195	  -16.5019	
 -710.0000	-1.0570E-9	-1.0570E-9	-1.660278E-10	-1.660278E-10	   19.9961	   21.3717	    6.6189	  -16.5040	
 -720.0000	-1.0740E-9	-1.0740E-9	-1.666587E-10	-1.666587E-10	   19.9936	   21.3748	    6.6170	  -16.5051	
 -730.0000	-1.0430E-9	-1.0430E-9	-1.676175E-10	-1.676175E-10	   19.9910	   21.3746	    6.6123	  -16.5138	
 -740.0000	-1.0600E-9	-1.0600E-9	-1.691576E-10	-1.691576E-10	   19.9910	   21.3759	    6.6233	  -16.4929	
 -750.0000	-1.0710E-9	-1.0710E-9	-1.698518E-10	-1.698518E-10	   19.9936	   21.3774	    6.6176	  -16.5021	
 -760.0000	-1.1310E-9	-1.1310E-9	-1.714771E-10	-1.714771E-10	   19.9961	   21.3737	    6.6154	  -16.5088	
 -770.0000	-1.1010E-9	-1.1010E-9	-1.733878E-10	-1.733878E-10	   19.9987	   21.3749	    6.6116	  -16.5147	
 -780.0000	-1.1480E-9	-1.1480E-9	-1.746621E-10	-1.746621E-10	   20.0013	   21.3766	    6.6199	  -16.4987	
 -790.0000	-1.1680E-9	-1.1680E-9	-1.760439E-10	-1.760439E-10	   20.0064	   21.3791	    6.6189	  -16.4986	
 -800.0000	-1.1280E-9	-1.1280E-9	-1.775815E-10	-1.775815E-10	   20.0090	   21.3769	    6.6183	  -16.5013	
 -810.0000	-1.2310E-9	-1.2310E-9	-1.792570E-10	-1.792570E-10	   20.0116	   21.3780	    6.6199	  -16.4977	
 -820.0000	-1.1890E-9	-1.1890E-9	-1.807601E-10	-1.807601E-10	   20.0090	   21.3800	    6.6170	  -16.5013	
 -830.0000	-1.1950E-9	-1.1950E-9	-1.828373E-10	-1.828373E-10	   20.0090	   21.3800	    6.6170	  -16.5013	
 -840.0000	-1.2170E-9	-1.2170E-9	-1.844289E-10	-1.844289E-10	   20.0064	   21.3794	    6.6145	  -16.5063	
 -850.0000	-1.2310E-9	-1.2310E-9	-1.861676E-10	-1.861676E-10	   20.0013	   21.3794	    6.6151	  -16.5063	
 -860.0000	-1.3340E-9	-1.3340E-9	-1.884139E-10	-1.884139E-10	   20.0013	   21.3794	    6.6151	  -16.5052	
 -870.0000	-1.2590E-9	-1.2590E-9	-1.904690E-10	-1.904690E-10	   20.0013	   21.3775	    6.6300	  -16.4798	
 -880.0000	-1.3780E-9	-1.3780E-9	-1.939448E-10	-1.939448E-10	   19.9936	   21.3775	    6.6151	  -16.5066	
 -890.0000	-1.2270E-9	-1.2270E-9	-1.951601E-10	-1.951601E-10	   19.9936	   21.3741	    6.6167	  -16.5187	
 -900.0000	-1.2800E-9	-1.2800E-9	-1.978446E-10	-1.978446E-10	   19.9936	   21.3741	    6.6275	  -16.5062	
 -910.0000	-1.2740E-9	-1.2740E-9	-2.013446E-10	-2.013446E-10	   19.9936	   21.3775	    6.6275	  -16.4844	
 -920.0000	-1.3250E-9	-1.3250E-9	-2.040551E-10	-2.040551E-10	   19.9961	   21.3753	    6.6259	  -16.4888	
 -930.0000	-1.3070E-9	-1.3070E-9	-2.072147E-10	-2.072147E-10	   20.0013	   21.3753	    6.6148	  -16.4888	
 -940.0000	-1.3620E-9	-1.3620E-9	-2.107704E-10	-2.107704E-10	   20.0013	   21.3761	    6.6148	  -16.5082	
 -950.0000	-1.3460E-9	-1.3460E-9	-2.149591E-10	-2.149591E-10	   20.0039	   21.3746	    6.6208	  -16.4984	
 -960.0000	-1.3740E-9	-1.3740E-9	-2.188206E-10	-2.188206E-10	   20.0064	   21.3771	    6.6199	  -16.4983	
 -970.0000	-1.4950E-9	-1.4950E-9	-2.227900E-10	-2.227900E-10	   20.0090	   21.3755	    6.6183	  -16.5023	
 -980.0000	-1.4000E-9	-1.4000E-9	-2.274338E-10	-2.274338E-10	   20.0090	   21.3808	    6.6202	  -16.4950	
 -990.0000	-1.5650E-9	-1.5650E-9	-2.322068E-10	-2.322068E-10	   20.0090	   21.3791	    6.6176	  -16.5008	
-1000.0000	-1.4520E-9	-1.4520E-9	-2.375031E-10	-2.375031E-10	   20.0064	   21.3791	    6.6101	  -16.5008	
