GCD Test
Bias: 5000.000000
IV_38713_049_2-S_HM_XX_DIODEHALFPSTOP_GR
Date/Time: 3/9/2022 4:25:22 PM
Sensor Name: 
Type: P
Annealing Status: Unirradiated
Environment: 20C
Tester: Andrew Kent

Time Delay per Ramp Step (s): 0.500

CV Time Delay per Measurement (s) :0.500

AC Voltage (V): 0.500

Current Number of measurements per voltage: 1.000

IV Time Delay per Measurement (s) :0.000


BiasVoltage	Total Current_Avg	Total Current_0	Bias Current_Avg	Bias Current_0	Temperature	Air_Temp	Humidity	Dewpoint	
  -10.0000	4.0300E-10	4.0300E-10	-1.785593E-11	-1.785593E-11	   20.0013	   21.6956	   19.0813	   -2.8592	
  -20.0000	2.3600E-10	2.3600E-10	-1.932062E-11	-1.932062E-11	   20.0013	   21.6996	   19.0187	   -2.9000	
  -30.0000	4.9000E-11	4.9000E-11	-2.031066E-11	-2.031066E-11	   20.0013	   21.6967	   18.9794	   -2.9301	
  -40.0000	-2.5000E-11	-2.5000E-11	-2.146448E-11	-2.146448E-11	   20.0013	   21.7033	   18.9282	   -2.9610	
  -50.0000	2.2000E-11	2.2000E-11	-2.234532E-11	-2.234532E-11	   20.0013	   21.6992	   18.8947	   -2.9881	
  -60.0000	-9.0000E-11	-9.0000E-11	-2.298600E-11	-2.298600E-11	   20.0039	   21.6997	   18.8501	   -3.0194	
  -70.0000	-1.4500E-10	-1.4500E-10	-2.413595E-11	-2.413595E-11	   20.0013	   21.7006	   18.8175	   -3.0419	
  -80.0000	-1.8100E-10	-1.8100E-10	-2.435901E-11	-2.435901E-11	   20.0013	   21.6983	   18.7777	   -3.0721	
  -90.0000	-1.2600E-10	-1.2600E-10	-2.593716E-11	-2.593716E-11	   20.0013	   21.7001	   18.7533	   -3.0880	
 -100.0000	-1.2900E-10	-1.2900E-10	-2.620972E-11	-2.620972E-11	   19.9987	   21.7033	   18.7347	   -3.0988	
 -110.0000	-2.1700E-10	-2.1700E-10	-2.657478E-11	-2.657478E-11	   19.9987	   21.7033	   18.6980	   -3.0988	
 -120.0000	-1.5600E-10	-1.5600E-10	-2.731609E-11	-2.731609E-11	   19.9961	   21.6992	   18.6980	   -3.1284	
 -130.0000	-3.1400E-10	-3.1400E-10	-2.817655E-11	-2.817655E-11	   19.9961	   21.7034	   18.6565	   -3.1381	
 -140.0000	-2.0800E-10	-2.0800E-10	-2.892845E-11	-2.892845E-11	   19.9961	   21.7034	   18.6448	   -3.1546	
 -150.0000	-3.3500E-10	-3.3500E-10	-3.047381E-11	-3.047381E-11	   19.9961	   21.7105	   18.6271	   -3.1573	
 -160.0000	-3.9900E-10	-3.9900E-10	-3.160134E-11	-3.160134E-11	   19.9961	   21.7066	   18.6271	   -3.1732	
 -170.0000	-3.5500E-10	-3.5500E-10	-3.379837E-11	-3.379837E-11	   19.9961	   21.7071	   18.6170	   -3.1800	
 -180.0000	-3.2500E-10	-3.2500E-10	-3.765890E-11	-3.765890E-11	   20.0013	   21.7067	   18.6116	   -3.1842	
 -190.0000	-4.2600E-10	-4.2600E-10	-4.175840E-11	-4.175840E-11	   20.0013	   21.7057	   18.5958	   -3.1964	
 -200.0000	-4.6900E-10	-4.6900E-10	-4.604857E-11	-4.604857E-11	   20.0013	   21.7083	   18.5784	   -3.2068	
 -210.0000	-4.0400E-10	-4.0400E-10	-5.028881E-11	-5.028881E-11	   20.0039	   21.7089	   18.5696	   -3.2127	
 -220.0000	-4.4100E-10	-4.4100E-10	-5.302464E-11	-5.302464E-11	   20.0039	   21.7113	   18.5547	   -3.2215	
 -230.0000	-5.7500E-10	-5.7500E-10	-5.521371E-11	-5.521371E-11	   20.0039	   21.7060	   18.5493	   -3.2297	
 -240.0000	-5.7400E-10	-5.7400E-10	-5.669491E-11	-5.669491E-11	   20.0039	   21.7045	   18.5471	   -3.2325	
 -250.0000	-4.8900E-10	-4.8900E-10	-5.842016E-11	-5.842016E-11	   20.0039	   21.7042	   18.5367	   -3.2403	
 -260.0000	-6.1700E-10	-6.1700E-10	-5.979560E-11	-5.979560E-11	   20.0013	   21.7034	   18.5278	   -3.2473	
 -270.0000	-5.2300E-10	-5.2300E-10	-5.996061E-11	-5.996061E-11	   20.0013	   21.7053	   18.5240	   -3.2485	
 -280.0000	-5.8200E-10	-5.8200E-10	-6.133647E-11	-6.133647E-11	   19.9987	   21.7050	   18.5171	   -3.2538	
 -290.0000	-6.4400E-10	-6.4400E-10	-6.184859E-11	-6.184859E-11	   19.9987	   21.7018	   18.5104	   -3.2612	
 -300.0000	-5.7900E-10	-5.7900E-10	-6.288529E-11	-6.288529E-11	   19.9961	   21.7019	   18.4832	   -3.2808	
 -310.0000	-5.7300E-10	-5.7300E-10	-6.370034E-11	-6.370034E-11	   19.9961	   21.7018	   18.4934	   -3.2736	
 -320.0000	-6.5400E-10	-6.5400E-10	-6.404115E-11	-6.404115E-11	   19.9961	   21.7033	   18.4817	   -3.2808	
 -330.0000	-5.9000E-10	-5.9000E-10	-6.483011E-11	-6.483011E-11	   19.9961	   21.7038	   18.4785	   -3.2827	
 -340.0000	-7.4400E-10	-7.4400E-10	-6.538951E-11	-6.538951E-11	   19.9961	   21.7037	   18.4624	   -3.2945	
 -350.0000	-7.5600E-10	-7.5600E-10	-6.569245E-11	-6.569245E-11	   19.9987	   21.7037	   18.4643	   -3.2945	
 -360.0000	-6.6700E-10	-6.6700E-10	-6.630253E-11	-6.630253E-11	   20.0013	   21.7081	   18.4643	   -3.2895	
 -370.0000	-6.4000E-10	-6.4000E-10	-6.668963E-11	-6.668963E-11	   20.0013	   21.7041	   18.4447	   -3.3022	
 -380.0000	-7.0200E-10	-7.0200E-10	-6.783813E-11	-6.783813E-11	   20.0039	   21.7041	   18.4345	   -3.3070	
 -390.0000	-6.9300E-10	-6.9300E-10	-6.810766E-11	-6.810766E-11	   20.0039	   21.7029	   18.4345	   -3.3153	
 -400.0000	-7.1300E-10	-7.1300E-10	-6.813393E-11	-6.813393E-11	   20.0039	   21.7010	   18.4485	   -3.3068	
 -420.0000	-8.5700E-10	-8.5700E-10	-6.943727E-11	-6.943727E-11	   20.0039	   21.6964	   18.4273	   -3.3259	
 -440.0000	-9.2600E-10	-9.2600E-10	-7.023357E-11	-7.023357E-11	   20.0039	   21.6983	   18.4222	   -3.3280	
 -460.0000	-9.9600E-10	-9.9600E-10	-7.138535E-11	-7.138535E-11	   20.0039	   21.7048	   18.4314	   -3.3161	
 -480.0000	-1.0690E-9	-1.0690E-9	-7.184713E-11	-7.184713E-11	   20.0013	   21.6983	   18.4187	   -3.3305	
 -500.0000	-1.1220E-9	-1.1220E-9	-7.270093E-11	-7.270093E-11	   20.0013	   21.6983	   18.4216	   -3.3285	
 -520.0000	-1.1920E-9	-1.1920E-9	-7.356017E-11	-7.356017E-11	   20.0013	   21.6984	   18.4086	   -3.3378	
 -540.0000	-1.2860E-9	-1.2860E-9	-7.423021E-11	-7.423021E-11	   19.9987	   21.7015	   18.4178	   -3.3286	
 -560.0000	-1.2760E-9	-1.2760E-9	-7.427458E-11	-7.427458E-11	   19.9987	   21.7015	   18.4140	   -3.3286	
 -580.0000	-1.3600E-9	-1.3600E-9	-7.611593E-11	-7.611593E-11	   19.9987	   21.7002	   18.4140	   -3.3324	
 -600.0000	-1.4970E-9	-1.4970E-9	-7.639848E-11	-7.639848E-11	   19.9961	   21.7038	   18.4247	   -3.3217	
 -620.0000	-1.4550E-9	-1.4550E-9	-7.686194E-11	-7.686194E-11	   19.9961	   21.7035	   18.4099	   -3.3327	
 -640.0000	-1.5550E-9	-1.5550E-9	-7.748061E-11	-7.748061E-11	   19.9961	   21.7035	   18.4171	   -3.3327	
 -660.0000	-1.5050E-9	-1.5050E-9	-7.827040E-11	-7.827040E-11	   19.9961	   21.7077	   18.4171	   -3.3240	
 -680.0000	-1.6290E-9	-1.6290E-9	-7.893186E-11	-7.893186E-11	   19.9961	   21.7035	   18.4257	   -3.3212	
 -700.0000	-1.5800E-9	-1.5800E-9	-7.901901E-11	-7.901901E-11	   19.9987	   21.7045	   18.4152	   -3.3280	
 -720.0000	-1.6300E-9	-1.6300E-9	-8.006425E-11	-8.006425E-11	   19.9987	   21.7045	   18.4216	   -3.3280	
 -740.0000	-1.6400E-9	-1.6400E-9	-8.024111E-11	-8.024111E-11	   19.9987	   21.7030	   18.4216	   -3.3246	
 -760.0000	-1.6180E-9	-1.6180E-9	-8.036861E-11	-8.036861E-11	   20.0013	   21.7016	   18.4168	   -3.3292	
 -780.0000	-1.8240E-9	-1.8240E-9	-8.141346E-11	-8.141346E-11	   20.0013	   21.7040	   18.4250	   -3.3213	
 -800.0000	-1.6800E-9	-1.6800E-9	-8.239941E-11	-8.239941E-11	   20.0013	   21.7040	   18.4231	   -3.3213	
 -820.0000	-1.7310E-9	-1.7310E-9	-8.184899E-11	-8.184899E-11	   20.0013	   21.7040	   18.4231	   -3.3226	
 -840.0000	-1.8100E-9	-1.8100E-9	-8.319633E-11	-8.319633E-11	   20.0039	   21.7042	   18.4178	   -3.3264	
 -860.0000	-1.9110E-9	-1.9110E-9	-8.334421E-11	-8.334421E-11	   20.0039	   21.7066	   18.4140	   -3.3272	
 -880.0000	-1.9810E-9	-1.9810E-9	-8.346585E-11	-8.346585E-11	   20.0039	   21.7059	   18.4238	   -3.3206	
 -900.0000	-1.8990E-9	-1.8990E-9	-8.426927E-11	-8.426927E-11	   20.0039	   21.7059	   18.4342	   -3.3206	
 -920.0000	-1.8870E-9	-1.8870E-9	-8.483847E-11	-8.483847E-11	   20.0039	   21.7059	   18.4342	   -3.3130	
 -940.0000	-1.9500E-9	-1.9500E-9	-8.521164E-11	-8.521164E-11	   20.0039	   21.7019	   18.4260	   -3.3223	
 -960.0000	-2.0110E-9	-2.0110E-9	-8.565591E-11	-8.565591E-11	   20.0013	   21.7022	   18.4374	   -3.3138	
 -980.0000	-2.0590E-9	-2.0590E-9	-8.594604E-11	-8.594604E-11	   19.9987	   21.7003	   18.4304	   -3.3204	
-1000.0000	-2.2680E-9	-2.2680E-9	-8.644619E-11	-8.644619E-11	   19.9961	   21.7031	   18.4358	   -3.3142	
