GCD Test
Bias: 5000.000000
CV_D0_CO138_LargeDiode_GRConnected_Irradiated_90min
Date/Time: 8/4/2021 3:26:44 PM
Sensor Name: CO138
Type: N
Annealing Status: Irradiated and Annealed at 60C for 90 minute
Environment: -20C
Tester: Andrew Kent

Time Delay per Ramp Step (s): 0.500

CV Time Delay per Measurement (s) :0.500

AC Voltage (V): 0.500

Current Number of measurements per voltage: 4.000

IV Time Delay per Measurement (s) :0.000


BiasVoltage	LCR_Cp_freq1000.0	LCR_Cp_freq10000.0	LCR_Rp_freq1000.0	LCR_Rp_freq10000.0	Temperature	Air_Temp	Humidity	Dewpoint	
    1.0000	2.954E-11	1.854E-11	1.906E+6	1.763E+6	  -19.9728	    9.7831	    3.6898	  -31.2737	
    2.0000	3.375E-11	1.862E-11	2.020E+6	1.802E+6	  -19.9753	    9.7904	    3.6781	  -31.3016	
    3.0000	3.615E-11	1.867E-11	2.127E+6	1.824E+6	  -19.9957	    9.7450	    3.6619	  -31.3789	
    4.0000	3.809E-11	1.871E-11	2.205E+6	1.848E+6	  -20.0033	    9.7075	    3.6581	  -31.4157	
    5.0000	3.953E-11	1.875E-11	2.278E+6	1.860E+6	  -20.0008	    9.6825	    3.6414	  -31.4808	
    6.0000	4.034E-11	1.878E-11	2.364E+6	1.881E+6	  -20.0109	    9.6535	    3.6142	  -31.5787	
    7.0000	4.135E-11	1.880E-11	2.421E+6	1.906E+6	  -20.0135	    9.6627	    3.6107	  -31.5822	
    8.0000	4.183E-11	1.882E-11	2.495E+6	1.916E+6	  -20.0237	    9.6962	    3.5848	  -31.6336	
    9.0000	4.221E-11	1.884E-11	2.566E+6	1.928E+6	  -20.0237	    9.6501	    3.5661	  -31.7196	
   10.0000	4.275E-11	1.886E-11	2.625E+6	1.942E+6	  -20.0109	    9.6901	    3.5497	  -31.7396	
   20.0000	4.384E-11	1.900E-11	3.204E+6	2.070E+6	  -20.0033	    9.6877	    3.5247	  -31.8143	
   30.0000	4.341E-11	1.908E-11	3.695E+6	2.192E+6	  -20.0033	    9.6877	    3.5244	  -31.8152	
   40.0000	4.251E-11	1.912E-11	4.138E+6	2.308E+6	  -20.0033	    9.6330	    3.5079	  -31.9015	
   50.0000	4.136E-11	1.915E-11	4.567E+6	2.410E+6	  -19.9880	    9.6465	    3.4845	  -31.9613	
   60.0000	4.049E-11	1.917E-11	4.946E+6	2.518E+6	  -19.9804	    9.6565	    3.4677	  -32.0041	
   70.0000	3.947E-11	1.918E-11	5.325E+6	2.614E+6	  -19.9677	    9.5621	    3.4728	  -32.0545	
   80.0000	3.858E-11	1.918E-11	5.685E+6	2.715E+6	  -19.9855	    9.5796	    3.4494	  -32.1120	
   90.0000	3.770E-11	1.917E-11	6.043E+6	2.823E+6	  -19.9957	    9.5863	    3.4440	  -32.1235	
  100.0000	3.683E-11	1.915E-11	6.401E+6	2.952E+6	  -19.9982	    9.5373	    3.4317	  -32.1943	
  120.0000	3.556E-11	1.911E-11	7.059E+6	3.183E+6	  -20.0160	    9.5587	    3.4222	  -32.2080	
  140.0000	3.426E-11	1.907E-11	7.737E+6	3.431E+6	  -20.0313	    9.5489	    3.4156	  -32.2348	
  160.0000	3.327E-11	1.902E-11	8.367E+6	3.664E+6	  -20.0338	    9.5200	    3.3975	  -32.3092	
  180.0000	3.221E-11	1.897E-11	9.066E+6	3.943E+6	  -20.0262	    9.5288	    3.3852	  -32.3405	
  200.0000	3.130E-11	1.891E-11	9.764E+6	4.260E+6	  -20.0135	    9.5694	    3.3899	  -32.2981	
  220.0000	3.040E-11	1.886E-11	1.051E+7	4.617E+6	  -20.0084	    9.5571	    3.3909	  -32.3037	
  240.0000	2.958E-11	1.881E-11	1.128E+7	4.969E+6	  -19.9957	    9.5397	    3.3890	  -32.3215	
  260.0000	2.863E-11	1.875E-11	1.221E+7	5.476E+6	  -19.9804	    9.5303	    3.3716	  -32.3809	
  280.0000	2.776E-11	1.871E-11	1.323E+7	5.947E+6	  -19.9804	    9.4981	    3.3792	  -32.3800	
  300.0000	2.693E-11	1.866E-11	1.438E+7	6.581E+6	  -19.9728	    9.4609	    3.3672	  -32.4424	
  320.0000	2.612E-11	1.861E-11	1.572E+7	7.346E+6	  -19.9677	    9.4982	    3.3526	  -32.4611	
  340.0000	2.530E-11	1.857E-11	1.735E+7	8.261E+6	  -19.9423	    9.5289	    3.3523	  -32.4408	
  360.0000	2.448E-11	1.853E-11	1.930E+7	9.294E+6	  -19.9550	    9.4662	    3.3355	  -32.5356	
  380.0000	2.373E-11	1.850E-11	2.158E+7	1.065E+7	  -19.9830	    9.4982	    3.3238	  -32.5496	
  400.0000	2.301E-11	1.847E-11	2.448E+7	1.226E+7	  -19.9982	    9.4383	    3.3074	  -32.6418	
  420.0000	2.233E-11	1.845E-11	2.798E+7	1.420E+7	  -20.0160	    9.4424	    3.3083	  -32.6360	
  440.0000	2.172E-11	1.843E-11	3.242E+7	1.654E+7	  -20.0440	    9.4971	    3.2862	  -32.6671	
  460.0000	2.115E-11	1.841E-11	3.839E+7	1.959E+7	  -20.0465	    9.5048	    3.2840	  -32.6687	
  480.0000	2.066E-11	1.839E-11	4.635E+7	2.328E+7	  -20.0440	    9.5048	    3.2688	  -32.7161	
  500.0000	2.024E-11	1.838E-11	5.713E+7	2.778E+7	  -20.0313	    9.4716	    3.2559	  -32.7797	
  520.0000	1.985E-11	1.836E-11	7.175E+7	3.370E+7	  -20.0262	    9.4559	    3.2511	  -32.8055	
  540.0000	1.954E-11	1.834E-11	9.113E+7	4.155E+7	  -20.0186	    9.4529	    3.2369	  -32.8524	
  560.0000	1.927E-11	1.833E-11	1.161E+8	5.172E+7	  -19.9880	    9.4099	    3.2366	  -32.8831	
  580.0000	1.905E-11	1.830E-11	1.512E+8	6.500E+7	  -19.9702	    9.4489	    3.2242	  -32.8953	
  600.0000	1.887E-11	1.828E-11	1.983E+8	8.180E+7	  -19.9575	    9.4486	    3.2255	  -32.8915	
  620.0000	1.872E-11	1.826E-11	2.751E+8	1.030E+8	  -19.9575	    9.4198	    3.2207	  -32.9263	
  640.0000	1.862E-11	1.824E-11	3.955E+8	1.287E+8	  -19.9652	    9.4741	    3.2113	  -32.9191	
  660.0000	1.844E-11	1.822E-11	5.442E+8	1.676E+8	  -19.9779	    9.3957	    3.2015	  -33.0043	
  680.0000	1.839E-11	1.821E-11	8.886E+8	2.136E+8	  -19.9880	    9.4000	    3.1954	  -33.0205	
  700.0000	1.835E-11	1.819E-11	1.155E+9	2.496E+8	  -20.0059	    9.4244	    3.1923	  -33.0139	
  720.0000	1.833E-11	1.818E-11	9.616E+8	2.754E+8	  -20.0084	    9.4113	    3.1841	  -33.0492	
  740.0000	1.830E-11	1.817E-11	6.861E+8	2.754E+8	  -20.0109	    9.4637	    3.1879	  -33.0010	
  760.0000	1.828E-11	1.816E-11	4.930E+8	2.660E+8	  -20.0237	    9.4190	    3.1793	  -33.0591	
  780.0000	1.825E-11	1.815E-11	4.201E+8	2.610E+8	  -20.0364	    9.4500	    3.1701	  -33.0673	
  800.0000	1.823E-11	1.815E-11	3.791E+8	2.612E+8	  -20.0287	    9.4074	    3.1667	  -33.1078	
  820.0000	1.820E-11	1.814E-11	3.673E+8	2.741E+8	  -20.0211	    9.3836	    3.1543	  -33.1640	
  840.0000	1.819E-11	1.813E-11	3.600E+8	2.807E+8	  -20.0211	    9.3695	    3.1591	  -33.1583	
  860.0000	1.818E-11	1.813E-11	3.544E+8	2.936E+8	  -20.0135	    9.3381	    3.1509	  -33.2065	
  880.0000	1.815E-11	1.813E-11	3.581E+8	3.032E+8	  -20.0033	    9.3263	    3.1474	  -33.2258	
  900.0000	1.814E-11	1.812E-11	3.524E+8	3.121E+8	  -19.9906	    9.3733	    3.1442	  -33.2038	
  920.0000	1.814E-11	1.812E-11	3.552E+8	3.249E+8	  -19.9855	    9.3194	    3.1344	  -33.2727	
  940.0000	1.812E-11	1.811E-11	3.515E+8	3.328E+8	  -19.9855	    9.3037	    3.1499	  -33.2331	
  960.0000	1.812E-11	1.811E-11	3.546E+8	3.409E+8	  -19.9906	    9.2528	    3.1559	  -33.2487	
  980.0000	1.810E-11	1.811E-11	3.529E+8	3.501E+8	  -19.9957	    9.2779	    3.1695	  -33.1876	
 1000.0000	1.809E-11	1.810E-11	3.585E+8	3.566E+8	  -19.9957	    9.3056	    3.1673	  -33.1757	
