GCD Test
Bias: 5000.000000
CV_36696_010_PSS_HM_XX_DIODEHALFPSTOP
Date/Time: 8/17/2021 5:44:58 PM
Sensor Name: 36696_010_PSS_HM_XX_DIODEHALFPSTOP
Type: P
Annealing Status: Unirrad
Environment: -20C
Tester: Eric Spencer

Time Delay per Ramp Step (s): 0.500

CV Time Delay per Measurement (s) :0.500

AC Voltage (V): 0.500

Current Number of measurements per voltage: 1.000

IV Time Delay per Measurement (s) :0.000


BiasVoltage	LCR_Cp_freq1000.0	LCR_Rp_freq1000.0	Temperature	Air_Temp	Humidity	Dewpoint
   -5.0000	2.246E-11	1.322E+9	   20.0039	   21.3719	   11.9485	   -9.2333	
  -10.0000	1.727E-11	1.725E+9	   19.9575	   21.3719	   11.3365	   -9.8997	
  -15.0000	1.490E-11	1.901E+9	   19.9575	   21.3719	   11.3365	   -9.8997	
  -20.0000	1.348E-11	1.722E+9	   19.9164	   21.3747	   10.5607	  -10.7898	
  -25.0000	1.258E-11	1.897E+9	   19.9164	   21.3646	   10.3201	  -11.0862	
  -30.0000	1.192E-11	1.919E+9	   19.9472	   21.3646	   10.0285	  -11.4442	
  -35.0000	1.143E-11	1.688E+9	   19.9807	   21.3641	    9.8637	  -11.6509	
  -40.0000	1.100E-11	1.813E+9	   20.0245	   21.3564	    9.6888	  -11.8792	
  -45.0000	1.066E-11	1.839E+9	   20.0605	   21.3629	    9.5560	  -12.0456	
  -50.0000	1.037E-11	1.822E+9	   20.0939	   21.3623	    9.4361	  -12.2024	
  -55.0000	1.011E-11	1.821E+9	   20.1120	   21.3754	    9.3147	  -12.3529	
  -60.0000	9.885E-12	1.698E+9	   20.1171	   21.3780	    9.2059	  -12.4961	
  -65.0000	9.693E-12	1.741E+9	   20.1068	   21.3722	    9.1066	  -12.6344	
  -70.0000	9.517E-12	1.741E+9	   20.0862	   21.3723	    9.0063	  -12.7708	
  -75.0000	9.358E-12	1.726E+9	   20.0605	   21.3771	    8.9244	  -12.8798	
  -80.0000	9.216E-12	1.820E+9	   20.0347	   21.3730	    8.8482	  -12.9884	
  -85.0000	9.084E-12	1.727E+9	   20.0116	   21.3740	    8.7713	  -13.0948	
  -90.0000	8.960E-12	1.711E+9	   19.9858	   21.3788	    8.7043	  -13.1855	
  -95.0000	8.844E-12	1.877E+9	   19.9678	   21.3715	    8.6534	  -13.2630	
 -100.0000	8.737E-12	1.763E+9	   19.9575	   21.3761	    8.5930	  -13.3455	
 -105.0000	8.632E-12	1.771E+9	   19.9575	   21.3675	    8.5430	  -13.4233	
 -110.0000	8.534E-12	1.789E+9	   19.9627	   21.3707	    8.4987	  -13.4846	
 -115.0000	8.450E-12	1.923E+9	   19.9807	   21.3694	    8.4541	  -13.5500	
 -120.0000	8.370E-12	1.954E+9	   20.0013	   21.3706	    8.4121	  -13.6101	
 -125.0000	8.297E-12	1.926E+9	   20.0270	   21.3692	    8.3792	  -13.6590	
 -130.0000	8.227E-12	1.850E+9	   20.0502	   21.3761	    8.3501	  -13.6964	
 -135.0000	8.165E-12	1.791E+9	   20.0502	   21.3761	    8.3501	  -13.6964	
 -140.0000	8.103E-12	1.855E+9	   20.0734	   21.3724	    8.2998	  -13.7730	
 -145.0000	8.034E-12	1.839E+9	   20.0811	   21.3719	    8.2676	  -13.8209	
 -150.0000	7.991E-12	1.843E+9	   20.0785	   21.3678	    8.2457	  -13.8562	
 -155.0000	7.934E-12	1.829E+9	   20.0502	   21.3676	    8.1841	  -13.9480	
 -160.0000	7.885E-12	1.862E+9	   20.0502	   21.3676	    8.1841	  -13.9480	
 -165.0000	7.830E-12	1.735E+9	   19.9884	   21.3673	    8.1322	  -14.0257	
 -170.0000	7.793E-12	1.962E+9	   19.9653	   21.3684	    8.1192	  -14.0443	
 -175.0000	7.742E-12	1.794E+9	   19.9447	   21.3703	    8.0990	  -14.0733	
 -180.0000	7.702E-12	1.922E+9	   19.9318	   21.3619	    8.0753	  -14.1153	
 -185.0000	7.665E-12	1.836E+9	   19.9292	   21.3681	    8.0534	  -14.1436	
 -190.0000	7.629E-12	1.850E+9	   19.9369	   21.3610	    8.0512	  -14.1523	
 -195.0000	7.588E-12	1.791E+9	   19.9601	   21.3722	    8.0281	  -14.1788	
 -200.0000	7.556E-12	1.872E+9	   19.9858	   21.3691	    8.0158	  -14.1999	
 -205.0000	7.517E-12	1.862E+9	   20.0193	   21.3657	    7.9949	  -14.2341	
 -210.0000	7.481E-12	1.895E+9	   20.0502	   21.3714	    7.9880	  -14.2405	
 -215.0000	7.448E-12	1.799E+9	   20.0759	   21.3663	    7.9662	  -14.2775	
 -220.0000	7.416E-12	1.824E+9	   20.0939	   21.3714	    7.9731	  -14.2631	
 -225.0000	7.385E-12	1.908E+9	   20.0965	   21.3648	    7.9554	  -14.2951	
 -230.0000	7.355E-12	1.899E+9	   20.0888	   21.3614	    7.9374	  -14.3252	
 -235.0000	7.330E-12	1.842E+9	   20.0682	   21.3714	    7.9377	  -14.3172	
 -240.0000	7.303E-12	1.974E+9	   20.0450	   21.3610	    7.9216	  -14.3497	
 -245.0000	7.278E-12	1.974E+9	   20.0167	   21.3672	    7.9083	  -14.3655	
 -250.0000	7.244E-12	1.871E+9	   19.9936	   21.3720	    7.8925	  -14.3862	
 -255.0000	7.221E-12	1.825E+9	   19.9730	   21.3602	    7.8852	  -14.4062	
 -260.0000	7.193E-12	1.864E+9	   19.9524	   21.3621	    7.8757	  -14.4194	
 -265.0000	7.169E-12	1.736E+9	   19.9472	   21.3602	    7.8744	  -14.4228	
 -270.0000	7.149E-12	1.791E+9	   19.9524	   21.3551	    7.8653	  -14.4407	
 -275.0000	7.119E-12	1.799E+9	   19.9627	   21.3522	    7.8498	  -14.4668	
 -280.0000	7.089E-12	1.687E+9	   19.9910	   21.3603	    7.8529	  -14.4559	
 -285.0000	7.055E-12	1.707E+9	   20.0167	   21.3522	    7.8406	  -14.4810	
 -290.0000	7.015E-12	1.576E+9	   20.0553	   21.3610	    7.8406	  -14.4745	
 -295.0000	6.991E-12	1.855E+9	   20.0759	   21.3610	    7.8289	  -14.4926	
 -300.0000	6.970E-12	2.188E+9	   20.0862	   21.3509	    7.8257	  -14.5050	
 -305.0000	6.958E-12	2.261E+9	   20.0837	   21.3578	    7.8216	  -14.5062	
 -310.0000	6.947E-12	2.066E+9	   20.0656	   21.3626	    7.8093	  -14.5219	
 -315.0000	6.940E-12	2.169E+9	   20.0347	   21.3626	    7.8074	  -14.5248	
 -320.0000	6.931E-12	2.254E+9	   19.9961	   21.3694	    7.8042	  -14.5246	
 -325.0000	6.920E-12	2.051E+9	   19.9730	   21.3662	    7.7913	  -14.5472	
 -330.0000	6.914E-12	2.131E+9	   19.9550	   21.3549	    7.7906	  -14.5566	
 -335.0000	6.907E-12	2.131E+9	   19.9421	   21.3576	    7.7865	  -14.5610	
 -340.0000	6.907E-12	2.058E+9	   19.9369	   21.3581	    7.7862	  -14.5611	
 -345.0000	6.902E-12	2.296E+9	   19.9550	   21.3528	    7.7723	  -14.5868	
 -350.0000	6.898E-12	2.061E+9	   19.9730	   21.3496	    7.7707	  -14.5916	
 -355.0000	6.895E-12	2.098E+9	   19.9987	   21.3550	    7.7701	  -14.5885	
 -360.0000	6.896E-12	2.353E+9	   20.0296	   21.3495	    7.7644	  -14.6016	
 -365.0000	6.888E-12	2.287E+9	   20.0528	   21.3508	    7.7717	  -14.5892	
 -370.0000	6.888E-12	2.055E+9	   20.0528	   21.3508	    7.7717	  -14.5892	
 -375.0000	6.886E-12	2.285E+9	   20.0759	   21.3514	    7.7612	  -14.6050	
 -380.0000	6.885E-12	1.996E+9	   20.0888	   21.3488	    7.7555	  -14.6159	
 -385.0000	6.881E-12	2.364E+9	   20.0785	   21.3515	    7.7562	  -14.6193	
 -390.0000	6.879E-12	2.090E+9	   20.0785	   21.3515	    7.7562	  -14.6128	
 -395.0000	6.881E-12	2.384E+9	   20.0476	   21.3565	    7.7445	  -14.6275	
 -400.0000	6.875E-12	2.080E+9	   20.0064	   21.3455	    7.7400	  -14.6426	
 -410.0000	6.879E-12	2.275E+9	   19.9627	   21.3454	    7.7306	  -14.6575	
 -420.0000	6.869E-12	2.039E+9	   19.9395	   21.3402	    7.7226	  -14.6738	
 -430.0000	6.869E-12	2.367E+9	   19.9189	   21.3421	    7.7144	  -14.6853	
 -440.0000	6.865E-12	2.426E+9	   19.9369	   21.3421	    7.7226	  -14.6724	
 -450.0000	6.865E-12	2.376E+9	   19.9575	   21.3282	    7.7223	  -14.6831	
 -460.0000	6.863E-12	2.108E+9	   20.0013	   21.3390	    7.7176	  -14.6826	
 -470.0000	6.862E-12	2.156E+9	   20.0013	   21.3390	    7.7176	  -14.6826	
 -480.0000	6.859E-12	2.386E+9	   20.0502	   21.3349	    7.7226	  -14.6777	
 -490.0000	6.860E-12	2.418E+9	   20.1197	   21.3433	    7.7170	  -14.6804	
 -500.0000	6.863E-12	2.088E+9	   20.1326	   21.3419	    7.7160	  -14.6829	
 -510.0000	6.860E-12	2.207E+9	   20.1300	   21.3509	    7.7173	  -14.6743	
 -520.0000	6.854E-12	2.189E+9	   20.1068	   21.3463	    7.7062	  -14.6951	
 -530.0000	6.850E-12	2.349E+9	   20.0759	   21.3344	    7.7078	  -14.7014	
 -540.0000	6.852E-12	2.255E+9	   20.0450	   21.3424	    7.7059	  -14.6985	
 -550.0000	6.849E-12	2.177E+9	   20.0450	   21.3424	    7.7059	  -14.6985	
 -560.0000	6.850E-12	2.476E+9	   19.9781	   21.3345	    7.6856	  -14.7362	
 -570.0000	6.853E-12	2.405E+9	   19.9575	   21.3280	    7.6929	  -14.7296	
 -580.0000	6.854E-12	2.288E+9	   19.9524	   21.3231	    7.6847	  -14.7461	
 -590.0000	6.848E-12	2.111E+9	   19.9575	   21.3258	    7.6913	  -14.7337	
 -600.0000	6.850E-12	2.154E+9	   19.9755	   21.3349	    7.6837	  -14.7389	
