GCD Test
Bias: 5000.000000
IV_37895_001_PSS_HM_XX_DIODE
Date/Time: 12/17/2021 9:31:03 AM
Sensor Name: DIODE
Type: P
Annealing Status: Unirradiated 
Environment: 20C
Tester: Andrew Kent

Time Delay per Ramp Step (s): 0.500

CV Time Delay per Measurement (s) :0.500

AC Voltage (V): 0.500

Current Number of measurements per voltage: 1.000

IV Time Delay per Measurement (s) :0.000


BiasVoltage	Total Current_Avg	Total Current_0	Bias Current_Avg	Bias Current_0	Temperature	Air_Temp	Humidity	Dewpoint	
   -5.0000	-2.5700E-10	-2.5700E-10	-1.694798E-10	-1.694798E-10	   20.1326	   22.2423	   21.3805	   -0.9040	
  -10.0000	-1.7400E-10	-1.7400E-10	-1.744623E-10	-1.744623E-10	   20.1326	   22.2297	   21.3805	   -0.8778	
  -15.0000	-1.9800E-10	-1.9800E-10	-1.791023E-10	-1.791023E-10	   20.1454	   22.2124	   21.4266	   -0.8628	
  -20.0000	-3.5900E-10	-3.5900E-10	-1.857206E-10	-1.857206E-10	   20.1531	   22.1929	   21.4690	   -0.8520	
  -25.0000	-3.5300E-10	-3.5300E-10	-1.948837E-10	-1.948837E-10	   20.1634	   22.1919	   21.5016	   -0.8321	
  -30.0000	-4.1100E-10	-4.1100E-10	-2.073167E-10	-2.073167E-10	   20.1763	   22.1789	   21.5361	   -0.8211	
  -35.0000	-4.2900E-10	-4.2900E-10	-2.200075E-10	-2.200075E-10	   20.1840	   22.1675	   21.5727	   -0.8073	
  -40.0000	-4.5800E-10	-4.5800E-10	-2.307493E-10	-2.307493E-10	   20.1918	   22.1618	   21.5977	   -0.7962	
  -45.0000	-4.8000E-10	-4.8000E-10	-2.400803E-10	-2.400803E-10	   20.1995	   22.1492	   21.6256	   -0.7891	
  -50.0000	-4.8800E-10	-4.8800E-10	-2.472279E-10	-2.472279E-10	   20.2098	   22.1466	   21.6512	   -0.7751	
  -55.0000	-5.6600E-10	-5.6600E-10	-2.519133E-10	-2.519133E-10	   20.2252	   22.1466	   21.7015	   -0.7751	
  -60.0000	-4.2000E-10	-4.2000E-10	-2.566558E-10	-2.566558E-10	   20.2304	   22.1358	   21.7372	   -0.7523	
  -65.0000	-5.2800E-10	-5.2800E-10	-2.577971E-10	-2.577971E-10	   20.2355	   22.1264	   21.7540	   -0.7377	
  -70.0000	-5.5300E-10	-5.5300E-10	-2.598161E-10	-2.598161E-10	   20.2407	   22.1110	   21.7742	   -0.7400	
  -75.0000	-4.7700E-10	-4.7700E-10	-2.616563E-10	-2.616563E-10	   20.2458	   22.1141	   21.8027	   -0.7247	
  -80.0000	-5.8600E-10	-5.8600E-10	-2.638943E-10	-2.638943E-10	   20.2458	   22.1061	   21.8027	   -0.7135	
  -85.0000	-6.1400E-10	-6.1400E-10	-2.655009E-10	-2.655009E-10	   20.2535	   22.1024	   21.8355	   -0.6960	
  -90.0000	-6.2400E-10	-6.2400E-10	-2.672396E-10	-2.672396E-10	   20.2587	   22.0936	   21.8504	   -0.6940	
  -95.0000	-6.2500E-10	-6.2500E-10	-2.690515E-10	-2.690515E-10	   20.2638	   22.0903	   21.8713	   -0.6837	
 -100.0000	-5.9400E-10	-5.9400E-10	-2.705363E-10	-2.705363E-10	   20.2664	   22.0875	   21.8982	   -0.6693	
 -105.0000	-5.2100E-10	-5.2100E-10	-2.718560E-10	-2.718560E-10	   20.2716	   22.0809	   21.9216	   -0.6601	
 -110.0000	-5.6600E-10	-5.6600E-10	-2.736789E-10	-2.736789E-10	   20.2716	   22.0799	   21.9288	   -0.6564	
 -115.0000	-5.3100E-10	-5.3100E-10	-2.746998E-10	-2.746998E-10	   20.2741	   22.0727	   21.9545	   -0.6464	
 -120.0000	-6.4100E-10	-6.4100E-10	-2.760609E-10	-2.760609E-10	   20.2793	   22.0732	   21.9712	   -0.6356	
 -125.0000	-6.1300E-10	-6.1300E-10	-2.774166E-10	-2.774166E-10	   20.2793	   22.0673	   21.9889	   -0.6294	
 -130.0000	-5.7800E-10	-5.7800E-10	-2.785128E-10	-2.785128E-10	   20.2844	   22.0568	   22.0123	   -0.6237	
 -135.0000	-6.1600E-10	-6.1600E-10	-2.801303E-10	-2.801303E-10	   20.2870	   22.0563	   22.0332	   -0.6111	
 -140.0000	-5.5500E-10	-5.5500E-10	-2.808618E-10	-2.808618E-10	   20.2870	   22.0527	   22.0436	   -0.6077	
 -145.0000	-6.6900E-10	-6.6900E-10	-2.827668E-10	-2.827668E-10	   20.2896	   22.0515	   22.0633	   -0.5965	
 -150.0000	-6.3600E-10	-6.3600E-10	-2.840875E-10	-2.840875E-10	   20.2896	   22.0503	   22.0848	   -0.5841	
 -155.0000	-6.3200E-10	-6.3200E-10	-2.859685E-10	-2.859685E-10	   20.2921	   22.0437	   22.1132	   -0.5720	
 -160.0000	-6.1500E-10	-6.1500E-10	-2.877050E-10	-2.877050E-10	   20.2947	   22.0437	   22.1297	   -0.5720	
 -165.0000	-7.2800E-10	-7.2800E-10	-2.897507E-10	-2.897507E-10	   20.2947	   22.0374	   22.1423	   -0.5671	
 -170.0000	-6.2600E-10	-6.2600E-10	-2.924871E-10	-2.924871E-10	   20.2973	   22.0305	   22.1565	   -0.5650	
 -175.0000	-6.9700E-10	-6.9700E-10	-2.956092E-10	-2.956092E-10	   20.2973	   22.0316	   22.1698	   -0.5553	
 -180.0000	-6.1900E-10	-6.1900E-10	-2.993847E-10	-2.993847E-10	   20.2973	   22.0289	   22.1698	   -0.5494	
 -185.0000	-6.8000E-10	-6.8000E-10	-3.043358E-10	-3.043358E-10	   20.2973	   22.0209	   22.1983	   -0.5385	
 -190.0000	-6.5200E-10	-6.5200E-10	-3.093928E-10	-3.093928E-10	   20.2973	   22.0204	   22.2046	   -0.5350	
 -195.0000	-6.6600E-10	-6.6600E-10	-3.155370E-10	-3.155370E-10	   20.2973	   22.0179	   22.2192	   -0.5281	
 -200.0000	-7.3600E-10	-7.3600E-10	-3.222694E-10	-3.222694E-10	   20.2999	   22.0141	   22.2337	   -0.5223	
 -205.0000	-7.3900E-10	-7.3900E-10	-3.296010E-10	-3.296010E-10	   20.2973	   22.0138	   22.2508	   -0.5120	
 -210.0000	-6.9700E-10	-6.9700E-10	-3.377164E-10	-3.377164E-10	   20.2999	   22.0119	   22.2581	   -0.5092	
 -215.0000	-8.5400E-10	-8.5400E-10	-3.459852E-10	-3.459852E-10	   20.2999	   22.0038	   22.2751	   -0.5054	
 -220.0000	-7.2900E-10	-7.2900E-10	-3.539100E-10	-3.539100E-10	   20.2999	   22.0007	   22.3001	   -0.4927	
 -225.0000	-7.3400E-10	-7.3400E-10	-3.609255E-10	-3.609255E-10	   20.2999	   21.9973	   22.2995	   -0.4959	
 -230.0000	-8.7800E-10	-8.7800E-10	-3.666928E-10	-3.666928E-10	   20.2999	   21.9973	   22.3153	   -0.4862	
 -235.0000	-8.0800E-10	-8.0800E-10	-3.724703E-10	-3.724703E-10	   20.2999	   21.9944	   22.3286	   -0.4804	
 -240.0000	-7.9200E-10	-7.9200E-10	-3.771658E-10	-3.771658E-10	   20.2973	   21.9903	   22.3343	   -0.4803	
 -245.0000	-8.3500E-10	-8.3500E-10	-3.819271E-10	-3.819271E-10	   20.2973	   21.9913	   22.3412	   -0.4753	
 -250.0000	-8.6600E-10	-8.6600E-10	-3.862212E-10	-3.862212E-10	   20.2973	   21.9903	   22.3602	   -0.4645	
 -255.0000	-8.5300E-10	-8.5300E-10	-3.894075E-10	-3.894075E-10	   20.2973	   21.9843	   22.3602	   -0.4694	
 -260.0000	-8.0400E-10	-8.0400E-10	-3.929997E-10	-3.929997E-10	   20.2973	   21.9852	   22.3754	   -0.4594	
 -265.0000	-8.2300E-10	-8.2300E-10	-3.962916E-10	-3.962916E-10	   20.2973	   21.9843	   22.3770	   -0.4592	
 -270.0000	-9.0900E-10	-9.0900E-10	-3.990658E-10	-3.990658E-10	   20.2973	   21.9777	   22.3953	   -0.4535	
 -275.0000	-8.6300E-10	-8.6300E-10	-4.018018E-10	-4.018018E-10	   20.2973	   21.9785	   22.3982	   -0.4511	
 -280.0000	-1.0570E-9	-1.0570E-9	-4.046576E-10	-4.046576E-10	   20.2973	   21.9693	   22.4130	   -0.4497	
 -285.0000	-9.5700E-10	-9.5700E-10	-4.066302E-10	-4.066302E-10	   20.2973	   21.9700	   22.4285	   -0.4397	
 -290.0000	-1.0060E-9	-1.0060E-9	-4.094139E-10	-4.094139E-10	   20.2921	   21.9700	   22.4285	   -0.4397	
 -295.0000	-9.5800E-10	-9.5800E-10	-4.114281E-10	-4.114281E-10	   20.2921	   21.9677	   22.4475	   -0.4290	
 -300.0000	-1.0230E-9	-1.0230E-9	-4.142839E-10	-4.142839E-10	   20.2921	   21.9677	   22.4475	   -0.4299	
 -305.0000	-9.3100E-10	-9.3100E-10	-4.155508E-10	-4.155508E-10	   20.2921	   21.9626	   22.4503	   -0.4325	
 -310.0000	-1.0240E-9	-1.0240E-9	-4.177958E-10	-4.177958E-10	   20.2921	   21.9601	   22.4775	   -0.4180	
 -315.0000	-1.0290E-9	-1.0290E-9	-4.203146E-10	-4.203146E-10	   20.2921	   21.9601	   22.4775	   -0.4180	
 -320.0000	-1.0800E-9	-1.0800E-9	-4.219640E-10	-4.219640E-10	   20.2921	   21.9601	   22.4839	   -0.4141	
 -325.0000	-1.0730E-9	-1.0730E-9	-4.237564E-10	-4.237564E-10	   20.2896	   21.9561	   22.5009	   -0.4071	
 -330.0000	-1.0480E-9	-1.0480E-9	-4.257086E-10	-4.257086E-10	   20.2870	   21.9561	   22.5139	   -0.4071	
 -335.0000	-9.5200E-10	-9.5200E-10	-4.273239E-10	-4.273239E-10	   20.2870	   21.9525	   22.5139	   -0.4022	
 -340.0000	-9.4900E-10	-9.4900E-10	-4.286598E-10	-4.286598E-10	   20.2844	   21.9481	   22.5250	   -0.3991	
 -345.0000	-9.7500E-10	-9.7500E-10	-4.304170E-10	-4.304170E-10	   20.2844	   21.9521	   22.5373	   -0.3883	
 -350.0000	-1.0120E-9	-1.0120E-9	-4.333688E-10	-4.333688E-10	   20.2844	   21.9495	   22.5354	   -0.3916	
 -355.0000	-9.8000E-10	-9.8000E-10	-4.346589E-10	-4.346589E-10	   20.2819	   21.9433	   22.5560	   -0.3843	
 -360.0000	-9.8700E-10	-9.8700E-10	-4.360787E-10	-4.360787E-10	   20.2819	   21.9377	   22.5664	   -0.3826	
 -365.0000	-1.0940E-9	-1.0940E-9	-4.376008E-10	-4.376008E-10	   20.2819	   21.9377	   22.5803	   -0.3826	
 -370.0000	-1.0370E-9	-1.0370E-9	-4.389371E-10	-4.389371E-10	   20.2819	   21.9377	   22.5803	   -0.3742	
 -375.0000	-1.0890E-9	-1.0890E-9	-4.405488E-10	-4.405488E-10	   20.2793	   21.9363	   22.5892	   -0.3700	
 -380.0000	-9.9900E-10	-9.9900E-10	-4.420791E-10	-4.420791E-10	   20.2793	   21.9369	   22.5958	   -0.3654	
 -385.0000	-1.0800E-9	-1.0800E-9	-4.430393E-10	-4.430393E-10	   20.2793	   21.9292	   22.6031	   -0.3674	
 -390.0000	-1.1690E-9	-1.1690E-9	-4.441997E-10	-4.441997E-10	   20.2767	   21.9285	   22.6132	   -0.3619	
 -395.0000	-1.0440E-9	-1.0440E-9	-4.445451E-10	-4.445451E-10	   20.2767	   21.9286	   22.6290	   -0.3522	
 -400.0000	-1.1320E-9	-1.1320E-9	-4.456868E-10	-4.456868E-10	   20.2741	   21.9286	   22.6404	   -0.3522	
 -410.0000	-1.1250E-9	-1.1250E-9	-4.486826E-10	-4.486826E-10	   20.2741	   21.9283	   22.6404	   -0.3456	
 -420.0000	-1.2610E-9	-1.2610E-9	-4.510585E-10	-4.510585E-10	   20.2767	   21.9258	   22.6357	   -0.3506	
 -430.0000	-1.1700E-9	-1.1700E-9	-4.533899E-10	-4.533899E-10	   20.2741	   21.9242	   22.6426	   -0.3477	
 -440.0000	-1.2540E-9	-1.2540E-9	-4.560724E-10	-4.560724E-10	   20.2741	   21.9178	   22.6496	   -0.3489	
 -450.0000	-1.4170E-9	-1.4170E-9	-4.583913E-10	-4.583913E-10	   20.2741	   21.9200	   22.6673	   -0.3363	
 -460.0000	-1.3070E-9	-1.3070E-9	-4.603173E-10	-4.603173E-10	   20.2716	   21.9200	   22.6755	   -0.3363	
 -470.0000	-1.3240E-9	-1.3240E-9	-4.623148E-10	-4.623148E-10	   20.2716	   21.9200	   22.6755	   -0.3313	
 -480.0000	-1.3380E-9	-1.3380E-9	-4.642738E-10	-4.642738E-10	   20.2716	   21.9206	   22.6920	   -0.3209	
 -490.0000	-1.3590E-9	-1.3590E-9	-4.666364E-10	-4.666364E-10	   20.2690	   21.9166	   22.6866	   -0.3274	
 -500.0000	-1.5220E-9	-1.5220E-9	-4.691499E-10	-4.691499E-10	   20.2690	   21.9101	   22.7030	   -0.3229	
 -510.0000	-1.3820E-9	-1.3820E-9	-4.706299E-10	-4.706299E-10	   20.2664	   21.9101	   22.7046	   -0.3229	
 -520.0000	-1.4130E-9	-1.4130E-9	-4.724138E-10	-4.724138E-10	   20.2664	   21.9101	   22.7046	   -0.3220	
 -530.0000	-1.4350E-9	-1.4350E-9	-4.741498E-10	-4.741498E-10	   20.2664	   21.9091	   22.7211	   -0.3129	
 -540.0000	-1.4420E-9	-1.4420E-9	-4.762207E-10	-4.762207E-10	   20.2664	   21.9092	   22.7236	   -0.3113	
 -550.0000	-1.6000E-9	-1.6000E-9	-4.779518E-10	-4.779518E-10	   20.2664	   21.9063	   22.7239	   -0.3135	
 -560.0000	-1.4990E-9	-1.4990E-9	-4.795098E-10	-4.795098E-10	   20.2664	   21.9063	   22.7555	   -0.3135	
 -570.0000	-1.5590E-9	-1.5590E-9	-4.821383E-10	-4.821383E-10	   20.2664	   21.9071	   22.7555	   -0.2938	
 -580.0000	-1.5480E-9	-1.5480E-9	-4.833658E-10	-4.833658E-10	   20.2638	   21.8988	   22.7634	   -0.2959	
 -590.0000	-1.6060E-9	-1.6060E-9	-4.853730E-10	-4.853730E-10	   20.2613	   21.8988	   22.7676	   -0.2959	
 -600.0000	-1.5620E-9	-1.5620E-9	-4.873656E-10	-4.873656E-10	   20.2613	   21.9028	   22.7676	   -0.2902	
 -610.0000	-1.5840E-9	-1.5840E-9	-4.884005E-10	-4.884005E-10	   20.2613	   21.9037	   22.7919	   -0.2747	
 -620.0000	-1.6270E-9	-1.6270E-9	-4.900805E-10	-4.900805E-10	   20.2587	   21.9008	   22.7992	   -0.2727	
 -630.0000	-1.6640E-9	-1.6640E-9	-4.923023E-10	-4.923023E-10	   20.2587	   21.9008	   22.8223	   -0.2727	
 -640.0000	-1.6160E-9	-1.6160E-9	-4.940983E-10	-4.940983E-10	   20.2587	   21.9007	   22.8223	   -0.2590	
 -650.0000	-1.6610E-9	-1.6610E-9	-4.956128E-10	-4.956128E-10	   20.2587	   21.8965	   22.8333	   -0.2558	
 -660.0000	-1.6830E-9	-1.6830E-9	-4.968526E-10	-4.968526E-10	   20.2561	   21.8868	   22.8371	   -0.2616	
 -670.0000	-1.6770E-9	-1.6770E-9	-4.989593E-10	-4.989593E-10	   20.2561	   21.8915	   22.8488	   -0.2506	
 -680.0000	-1.7270E-9	-1.7270E-9	-5.005470E-10	-5.005470E-10	   20.2535	   21.8915	   22.8713	   -0.2506	
 -690.0000	-1.6830E-9	-1.6830E-9	-5.025931E-10	-5.025931E-10	   20.2535	   21.8894	   22.8713	   -0.2389	
 -700.0000	-1.6950E-9	-1.6950E-9	-5.041072E-10	-5.041072E-10	   20.2510	   21.8879	   22.8824	   -0.2335	
 -710.0000	-1.7710E-9	-1.7710E-9	-5.055358E-10	-5.055358E-10	   20.2510	   21.8885	   22.8896	   -0.2287	
 -720.0000	-1.7470E-9	-1.7470E-9	-5.070159E-10	-5.070159E-10	   20.2510	   21.8866	   22.9032	   -0.2221	
 -730.0000	-1.7870E-9	-1.7870E-9	-5.090415E-10	-5.090415E-10	   20.2484	   21.8866	   22.9175	   -0.2221	
 -740.0000	-1.7890E-9	-1.7890E-9	-5.111510E-10	-5.111510E-10	   20.2484	   21.8845	   22.9175	   -0.2154	
 -750.0000	-1.8160E-9	-1.8160E-9	-5.122072E-10	-5.122072E-10	   20.2484	   21.8831	   22.9235	   -0.2130	
 -760.0000	-1.8550E-9	-1.8550E-9	-5.142949E-10	-5.142949E-10	   20.2484	   21.8831	   22.9386	   -0.2130	
 -770.0000	-1.8470E-9	-1.8470E-9	-5.162634E-10	-5.162634E-10	   20.2484	   21.8843	   22.9386	   -0.2028	
 -780.0000	-1.8240E-9	-1.8240E-9	-5.174827E-10	-5.174827E-10	   20.2484	   21.8815	   22.9516	   -0.1974	
 -790.0000	-2.0310E-9	-2.0310E-9	-5.199114E-10	-5.199114E-10	   20.2458	   21.8745	   22.9541	   -0.2018	
 -800.0000	-1.8540E-9	-1.8540E-9	-5.215539E-10	-5.215539E-10	   20.2458	   21.8745	   22.9598	   -0.2018	
 -810.0000	-1.9130E-9	-1.9130E-9	-5.236280E-10	-5.236280E-10	   20.2458	   21.8745	   22.9598	   -0.1984	
 -820.0000	-1.9210E-9	-1.9210E-9	-5.255975E-10	-5.255975E-10	   20.2432	   21.8731	   22.9674	   -0.1950	
 -830.0000	-2.0650E-9	-2.0650E-9	-5.273674E-10	-5.273674E-10	   20.2432	   21.8759	   22.9836	   -0.1830	
 -840.0000	-1.9060E-9	-1.9060E-9	-5.294372E-10	-5.294372E-10	   20.2432	   21.8759	   22.9959	   -0.1830	
 -850.0000	-1.9320E-9	-1.9320E-9	-5.313966E-10	-5.313966E-10	   20.2432	   21.8736	   22.9959	   -0.1776	
 -860.0000	-1.9170E-9	-1.9170E-9	-5.336302E-10	-5.336302E-10	   20.2432	   21.8699	   23.0016	   -0.1773	
 -870.0000	-2.0890E-9	-2.0890E-9	-5.363718E-10	-5.363718E-10	   20.2407	   21.8672	   23.0142	   -0.1720	
 -880.0000	-1.9950E-9	-1.9950E-9	-5.388977E-10	-5.388977E-10	   20.2381	   21.8672	   23.0164	   -0.1720	
 -890.0000	-2.0190E-9	-2.0190E-9	-5.418184E-10	-5.418184E-10	   20.2381	   21.8654	   23.0164	   -0.1722	
 -900.0000	-2.0490E-9	-2.0490E-9	-5.445111E-10	-5.445111E-10	   20.2381	   21.8613	   23.0139	   -0.1771	
 -910.0000	-2.0470E-9	-2.0470E-9	-5.467459E-10	-5.467459E-10	   20.2381	   21.8636	   23.0288	   -0.1664	
 -920.0000	-2.0140E-9	-2.0140E-9	-5.497649E-10	-5.497649E-10	   20.2355	   21.8636	   23.0313	   -0.1664	
 -930.0000	-2.0890E-9	-2.0890E-9	-5.524093E-10	-5.524093E-10	   20.2355	   21.8571	   23.0313	   -0.1703	
 -940.0000	-2.1150E-9	-2.1150E-9	-5.555203E-10	-5.555203E-10	   20.2355	   21.8593	   23.0417	   -0.1622	
 -950.0000	-2.1160E-9	-2.1160E-9	-5.591068E-10	-5.591068E-10	   20.2329	   21.8593	   23.0484	   -0.1622	
 -960.0000	-2.0990E-9	-2.0990E-9	-5.623316E-10	-5.623316E-10	   20.2329	   21.8595	   23.0484	   -0.1581	
 -970.0000	-2.1240E-9	-2.1240E-9	-5.660726E-10	-5.660726E-10	   20.2304	   21.8559	   23.0553	   -0.1570	
 -980.0000	-2.1830E-9	-2.1830E-9	-5.700047E-10	-5.700047E-10	   20.2304	   21.8582	   23.0636	   -0.1501	
 -990.0000	-2.1490E-9	-2.1490E-9	-5.737358E-10	-5.737358E-10	   20.2304	   21.8582	   23.0727	   -0.1501	
-1000.0000	-2.2150E-9	-2.2150E-9	-5.784044E-10	-5.784044E-10	   20.2304	   21.8489	   23.0727	   -0.1524	
