GCD Test
Bias: 5000.000000
IV_34340_040_PSS_HM_XX_DIODEHALFPSTOP_GRConnected
Date/Time: 7/6/2021 12:29:45 PM
Sensor Name: DIODEHALFPSTOP
Type: P
Annealing Status: Not Irradiated
Environment: 20C
Tester: Andrew Kent

Time Delay per Ramp Step (s): 0.500

CV Time Delay per Measurement (s) :0.500

AC Voltage (V): 0.500

Current Number of measurements per voltage: 1.000

IV Time Delay per Measurement (s) :0.000


BiasVoltage	Total Current_Avg	Total Current_0	Bias Current_Avg	Bias Current_0	Temperature	Air_Temp	Humidity	Dewpoint	
   -5.0000	6.3000E-11	6.3000E-11	-8.050320E-12	-8.050320E-12	   20.2896	   20.6015	    8.1540	  -14.5651	
  -10.0000	-4.2000E-11	-4.2000E-11	-8.075785E-12	-8.075785E-12	   20.2921	   20.6110	    8.0411	  -14.7270	
  -15.0000	5.0000E-11	5.0000E-11	-8.317789E-12	-8.317789E-12	   20.2510	   20.6091	    7.9323	  -14.8932	
  -20.0000	-1.0300E-10	-1.0300E-10	-9.013055E-12	-9.013055E-12	   20.1763	   20.6218	    7.8036	  -15.0815	
  -25.0000	4.9000E-11	4.9000E-11	-8.589135E-12	-8.589135E-12	   20.0837	   20.6073	    7.7207	  -15.2210	
  -30.0000	3.2000E-11	3.2000E-11	-8.804658E-12	-8.804658E-12	   19.9936	   20.6070	    7.6420	  -15.3448	
  -35.0000	-1.2700E-10	-1.2700E-10	-9.708731E-12	-9.708731E-12	   19.8958	   20.6074	    7.5851	  -15.4345	
  -40.0000	-9.7000E-11	-9.7000E-11	-9.203122E-12	-9.203122E-12	   19.8237	   20.5962	    7.5262	  -15.5365	
  -45.0000	-9.5000E-11	-9.5000E-11	-9.706287E-12	-9.706287E-12	   19.7671	   20.5835	    7.4845	  -15.6127	
  -50.0000	-2.1800E-10	-2.1800E-10	-1.054355E-11	-1.054355E-11	   19.7542	   20.5961	    7.4254	  -15.6986	
  -55.0000	-2.2300E-10	-2.2300E-10	-1.103693E-11	-1.103693E-11	   19.7722	   20.5847	    7.3865	  -15.7701	
  -60.0000	-1.8500E-10	-1.8500E-10	-1.079349E-11	-1.079349E-11	   19.8314	   20.5874	    7.3359	  -15.8506	
  -65.0000	-1.2200E-10	-1.2200E-10	-1.188396E-11	-1.188396E-11	   20.0142	   20.5874	    7.2849	  -15.8506	
  -70.0000	-1.5400E-10	-1.5400E-10	-1.225878E-11	-1.225878E-11	   20.1326	   20.5888	    7.2849	  -15.9330	
  -75.0000	-3.4300E-10	-3.4300E-10	-1.175765E-11	-1.175765E-11	   20.2278	   20.6073	    7.2378	  -15.9971	
  -80.0000	-2.3200E-10	-2.3200E-10	-1.241788E-11	-1.241788E-11	   20.3050	   20.6100	    7.2113	  -16.0391	
  -85.0000	-2.0900E-10	-2.0900E-10	-1.202472E-11	-1.202472E-11	   20.3308	   20.6083	    7.1755	  -16.0998	
  -90.0000	-3.2000E-10	-3.2000E-10	-1.213921E-11	-1.213921E-11	   20.3076	   20.5969	    7.1354	  -16.1198	
  -95.0000	-3.6500E-10	-3.6500E-10	-1.231848E-11	-1.231848E-11	   20.2561	   20.5969	    7.1199	  -16.1753	
 -100.0000	-3.2400E-10	-3.2400E-10	-1.209459E-11	-1.209459E-11	   20.1737	   20.5993	    7.0977	  -16.1996	
 -105.0000	-2.4800E-10	-2.4800E-10	-1.243459E-11	-1.243459E-11	   20.0734	   20.5922	    7.0731	  -16.2420	
 -110.0000	-2.5900E-10	-2.5900E-10	-1.206811E-11	-1.206811E-11	   20.0734	   20.5804	    7.0731	  -16.2923	
 -115.0000	-3.7900E-10	-3.7900E-10	-1.221498E-11	-1.221498E-11	   19.9678	   20.5961	    7.0487	  -16.3219	
 -120.0000	-3.2900E-10	-3.2900E-10	-1.211903E-11	-1.211903E-11	   19.8777	   20.5785	    7.0443	  -16.3424	
 -125.0000	-2.7100E-10	-2.7100E-10	-1.238121E-11	-1.238121E-11	   19.8057	   20.5790	    7.0228	  -16.3785	
 -130.0000	-4.0200E-10	-4.0200E-10	-1.236247E-11	-1.236247E-11	   19.7722	   20.5665	    7.0209	  -16.3909	
 -135.0000	-3.0600E-10	-3.0600E-10	-1.303940E-11	-1.303940E-11	   19.7722	   20.5628	    7.0016	  -16.4264	
 -140.0000	-3.4000E-10	-3.4000E-10	-1.272324E-11	-1.272324E-11	   19.8083	   20.5502	    6.9978	  -16.4422	
 -145.0000	-3.3900E-10	-3.3900E-10	-1.321643E-11	-1.321643E-11	   19.8855	   20.5529	    6.9987	  -16.4386	
 -150.0000	-3.6800E-10	-3.6800E-10	-1.374303E-11	-1.374303E-11	   19.9755	   20.5624	    6.9832	  -16.4580	
 -155.0000	-4.6600E-10	-4.6600E-10	-1.344296E-11	-1.344296E-11	   20.0785	   20.5675	    6.9924	  -16.4386	
 -160.0000	-4.5700E-10	-4.5700E-10	-1.469089E-11	-1.469089E-11	   20.1866	   20.5774	    6.9624	  -16.4826	
 -165.0000	-4.3700E-10	-4.3700E-10	-1.439694E-11	-1.439694E-11	   20.2664	   20.5775	    6.9731	  -16.4642	
 -170.0000	-5.2900E-10	-5.2900E-10	-1.424049E-11	-1.424049E-11	   20.3230	   20.5710	    6.9690	  -16.4760	
 -175.0000	-5.2200E-10	-5.2200E-10	-1.466156E-11	-1.466156E-11	   20.3385	   20.5724	    6.9602	  -16.4901	
 -180.0000	-5.4100E-10	-5.4100E-10	-1.418203E-11	-1.418203E-11	   20.3102	   20.5738	    6.9598	  -16.4897	
 -185.0000	-5.5000E-10	-5.5000E-10	-1.411134E-11	-1.411134E-11	   20.2407	   20.5683	    6.9355	  -16.5354	
 -190.0000	-5.4600E-10	-5.4600E-10	-1.416980E-11	-1.416980E-11	   20.1583	   20.5657	    6.9276	  -16.5510	
 -195.0000	-4.7000E-10	-4.7000E-10	-1.483879E-11	-1.483879E-11	   20.0579	   20.5536	    6.9184	  -16.5757	
 -200.0000	-4.7800E-10	-4.7800E-10	-1.458211E-11	-1.458211E-11	   19.9550	   20.5554	    6.9108	  -16.5874	
 -205.0000	-4.6800E-10	-4.6800E-10	-1.494756E-11	-1.494756E-11	   19.8674	   20.5560	    6.9244	  -16.5635	
 -210.0000	-4.9800E-10	-4.9800E-10	-1.557337E-11	-1.557337E-11	   19.8057	   20.5444	    6.9023	  -16.6102	
 -215.0000	-5.0200E-10	-5.0200E-10	-1.530202E-11	-1.530202E-11	   19.7722	   20.5535	    6.9111	  -16.5882	
 -220.0000	-5.5100E-10	-5.5100E-10	-1.540041E-11	-1.540041E-11	   19.7774	   20.5423	    6.9137	  -16.5921	
 -225.0000	-5.2000E-10	-5.2000E-10	-1.575915E-11	-1.575915E-11	   19.8134	   20.5377	    6.9086	  -16.6042	
 -230.0000	-6.3400E-10	-6.3400E-10	-1.627882E-11	-1.627882E-11	   19.8855	   20.5517	    6.9130	  -16.5863	
 -235.0000	-6.0200E-10	-6.0200E-10	-1.647989E-11	-1.647989E-11	   19.9755	   20.5531	    6.9228	  -16.5684	
 -240.0000	-5.4800E-10	-5.4800E-10	-1.644402E-11	-1.644402E-11	   20.0811	   20.5477	    6.9114	  -16.5920	
 -245.0000	-6.4100E-10	-6.4100E-10	-1.647785E-11	-1.647785E-11	   20.1918	   20.5509	    6.9054	  -16.6000	
 -250.0000	-6.6100E-10	-6.6100E-10	-1.660007E-11	-1.660007E-11	   20.2819	   20.5607	    6.9073	  -16.5895	
 -255.0000	-5.3700E-10	-5.3700E-10	-1.662289E-11	-1.662289E-11	   20.3359	   20.5540	    6.9020	  -16.6037	
 -260.0000	-6.5300E-10	-6.5300E-10	-1.650433E-11	-1.650433E-11	   20.3514	   20.5517	    6.8969	  -16.6141	
 -265.0000	-5.2200E-10	-5.2200E-10	-1.632628E-11	-1.632628E-11	   20.3153	   20.5549	    6.9001	  -16.6063	
 -270.0000	-5.5100E-10	-5.5100E-10	-1.649577E-11	-1.649577E-11	   20.1686	   20.5549	    6.8909	  -16.6063	
 -275.0000	-7.3200E-10	-7.3200E-10	-1.577850E-11	-1.577850E-11	   20.1686	   20.5429	    6.8909	  -16.6310	
 -280.0000	-5.1500E-10	-5.1500E-10	-1.620812E-11	-1.620812E-11	   20.0347	   20.5303	    6.8805	  -16.6582	
 -285.0000	-6.5900E-10	-6.5900E-10	-1.602010E-11	-1.602010E-11	   19.9266	   20.5370	    6.8817	  -16.6511	
 -290.0000	-6.4300E-10	-6.4300E-10	-1.590928E-11	-1.590928E-11	   19.8391	   20.5228	    6.8846	  -16.6566	
 -295.0000	-7.7700E-10	-7.7700E-10	-1.627902E-11	-1.627902E-11	   19.7774	   20.5161	    6.8801	  -16.6692	
 -300.0000	-8.0500E-10	-8.0500E-10	-1.613867E-11	-1.613867E-11	   19.7594	   20.5262	    6.8710	  -16.6777	
 -305.0000	-6.8000E-10	-6.8000E-10	-1.624928E-11	-1.624928E-11	   19.7748	   20.5139	    6.8757	  -16.6785	
 -310.0000	-8.5400E-10	-8.5400E-10	-1.629145E-11	-1.629145E-11	   19.8700	   20.5139	    6.8713	  -16.6785	
 -315.0000	-9.4200E-10	-9.4200E-10	-1.698895E-11	-1.698895E-11	   19.8700	   20.5139	    6.8713	  -16.6862	
 -320.0000	-7.7700E-10	-7.7700E-10	-1.713420E-11	-1.713420E-11	   19.9910	   20.5075	    6.8966	  -16.6471	
 -325.0000	-8.3200E-10	-8.3200E-10	-1.751351E-11	-1.751351E-11	   20.1068	   20.5134	    6.8744	  -16.6810	
 -330.0000	-8.7500E-10	-8.7500E-10	-1.728087E-11	-1.728087E-11	   20.2535	   20.5206	    6.8817	  -16.6632	
 -335.0000	-7.6900E-10	-7.6900E-10	-1.745769E-11	-1.745769E-11	   20.3462	   20.5206	    6.8801	  -16.6632	
 -340.0000	-8.3600E-10	-8.3600E-10	-1.754427E-11	-1.754427E-11	   20.3462	   20.5213	    6.8801	  -16.6654	
 -345.0000	-9.1000E-10	-9.1000E-10	-1.789323E-11	-1.789323E-11	   20.3771	   20.5312	    6.8770	  -16.6636	
 -350.0000	-9.2800E-10	-9.2800E-10	-1.761659E-11	-1.761659E-11	   20.3616	   20.5310	    6.8763	  -16.6648	
 -355.0000	-7.7300E-10	-7.7300E-10	-1.734015E-11	-1.734015E-11	   20.2819	   20.5388	    6.8656	  -16.6778	
 -360.0000	-7.9100E-10	-7.9100E-10	-1.743650E-11	-1.743650E-11	   20.1918	   20.5388	    6.8631	  -16.6778	
 -365.0000	-8.1900E-10	-8.1900E-10	-1.722037E-11	-1.722037E-11	   20.1918	   20.5191	    6.8631	  -16.6966	
 -370.0000	-9.4300E-10	-9.4300E-10	-1.738109E-11	-1.738109E-11	   20.0914	   20.5198	    6.8583	  -16.7043	
 -375.0000	-9.7600E-10	-9.7600E-10	-1.657643E-11	-1.657643E-11	   19.9910	   20.5124	    6.8672	  -16.6943	
 -380.0000	-8.7100E-10	-8.7100E-10	-1.666871E-11	-1.666871E-11	   19.8700	   20.5124	    6.8561	  -16.6943	
 -385.0000	-8.2300E-10	-8.2300E-10	-1.716658E-11	-1.716658E-11	   19.8700	   20.5124	    6.8561	  -16.7135	
 -390.0000	-8.2800E-10	-8.2800E-10	-1.634012E-11	-1.634012E-11	   19.8160	   20.4997	    6.8615	  -16.7135	
 -395.0000	-9.1800E-10	-9.1800E-10	-1.694128E-11	-1.694128E-11	   19.7928	   20.4999	    6.8656	  -16.7063	
 -400.0000	-1.0330E-9	-1.0330E-9	-1.738924E-11	-1.738924E-11	   19.8031	   20.4953	    6.8485	  -16.7393	
 -410.0000	-9.8400E-10	-9.8400E-10	-1.787285E-11	-1.787285E-11	   19.8855	   20.4953	    6.8605	  -16.7393	
 -420.0000	-1.1260E-9	-1.1260E-9	-1.762473E-11	-1.762473E-11	   19.8855	   20.4953	    6.8605	  -16.7184	
 -430.0000	-1.2210E-9	-1.2210E-9	-1.780725E-11	-1.780725E-11	   19.9833	   20.4944	    6.8732	  -16.6972	
 -440.0000	-1.1780E-9	-1.1780E-9	-1.819410E-11	-1.819410E-11	   20.1197	   20.4961	    6.8741	  -16.6943	
 -450.0000	-1.2760E-9	-1.2760E-9	-1.797695E-11	-1.797695E-11	   20.1197	   20.4961	    6.8741	  -16.6943	
 -460.0000	-1.3320E-9	-1.3320E-9	-1.835748E-11	-1.835748E-11	   20.2407	   20.5074	    6.8779	  -16.6794	
 -470.0000	-1.5070E-9	-1.5070E-9	-1.836990E-11	-1.836990E-11	   20.3127	   20.5151	    6.8539	  -16.7154	
 -480.0000	-1.2520E-9	-1.2520E-9	-1.804295E-11	-1.804295E-11	   20.3565	   20.5151	    6.8507	  -16.7154	
 -490.0000	-1.1990E-9	-1.1990E-9	-1.849335E-11	-1.849335E-11	   20.3565	   20.5151	    6.8507	  -16.7209	
 -500.0000	-1.4250E-9	-1.4250E-9	-1.785166E-11	-1.785166E-11	   20.3256	   20.5054	    6.8627	  -16.7072	
 -510.0000	-1.3290E-9	-1.3290E-9	-1.764408E-11	-1.764408E-11	   20.2664	   20.4999	    6.8744	  -16.6909	
 -520.0000	-1.4270E-9	-1.4270E-9	-1.774329E-11	-1.774329E-11	   20.1840	   20.4999	    6.8412	  -16.7485	
 -530.0000	-1.4050E-9	-1.4050E-9	-1.778525E-11	-1.778525E-11	   20.0528	   20.4999	    6.8684	  -16.7485	
 -540.0000	-1.3690E-9	-1.3690E-9	-1.752043E-11	-1.752043E-11	   20.0528	   20.4999	    6.8684	  -16.7013	
 -550.0000	-1.2160E-9	-1.2160E-9	-1.728514E-11	-1.728514E-11	   19.9138	   20.4935	    6.8510	  -16.7362	
 -560.0000	-1.4170E-9	-1.4170E-9	-1.794252E-11	-1.794252E-11	   19.8263	   20.4935	    6.8564	  -16.7362	
 -570.0000	-1.4530E-9	-1.4530E-9	-1.817128E-11	-1.817128E-11	   19.8263	   20.4930	    6.8564	  -16.7272	
 -580.0000	-1.5220E-9	-1.5220E-9	-1.813543E-11	-1.813543E-11	   19.7851	   20.4715	    6.8523	  -16.7502	
 -590.0000	-1.6710E-9	-1.6710E-9	-1.807982E-11	-1.807982E-11	   19.7799	   20.4750	    6.8542	  -16.7443	
 -600.0000	-1.6800E-9	-1.6800E-9	-1.814765E-11	-1.814765E-11	   19.8263	   20.4696	    6.8646	  -16.7302	
