38696_001_2-S_HM_XX_Irrad_20min
Date/Time: 4/29/2022 11:09:54 AM
Sensor Name: 38696_001_2-S_HM_XX
Station: Tesla
Annealing Status: 20 min
Environment: -20C
Tester: Eric Spencer
Notes: Irradiated at RINSC

Time Delay per Ramp Step (s): 1.000

CV Time Delay per Measurement (s) :0.500

AC Voltage (V): 0.500

Current Number of measurements per voltage: 4.000

IV Time Delay per Measurement (s) :0.500


BiasVoltage	LCR_Cp_freq1	LCR_G_freq1	Temperature	Air_Temp	Humidity	Dewpoint	
  -10.0000	1.663E-10	1.425E-6	  -20.0000	   26.3476	    1.3194	    0.0000	
  -20.0000	1.647E-10	1.096E-6	  -20.0000	   26.3476	    1.3194	    0.0000	
  -30.0000	1.578E-10	9.071E-7	  -20.0000	   26.3476	    1.3194	    0.0000	
  -40.0000	1.506E-10	7.809E-7	  -20.0000	   26.3476	    1.3194	    0.0000	
  -50.0000	1.441E-10	6.877E-7	  -20.0000	   26.3476	    1.3194	    0.0000	
  -60.0000	1.383E-10	6.168E-7	  -20.0000	   26.3476	    1.3194	    0.0000	
  -70.0000	1.328E-10	5.639E-7	  -20.0000	   26.3476	    1.3194	    0.0000	
  -80.0000	1.279E-10	5.177E-7	  -20.0000	   26.3476	    1.3194	    0.0000	
  -90.0000	1.240E-10	4.774E-7	  -20.0000	   26.3476	    1.3194	    0.0000	
 -100.0000	1.201E-10	4.458E-7	  -20.0000	   26.3476	    1.3194	    0.0000	
 -110.0000	1.165E-10	4.182E-7	  -20.0000	   26.3476	    1.3194	    0.0000	
 -120.0000	1.131E-10	3.953E-7	  -20.0000	   26.3476	    1.3194	    0.0000	
 -130.0000	1.104E-10	3.716E-7	  -20.0000	   26.3476	    1.3194	    0.0000	
 -140.0000	1.074E-10	3.533E-7	  -20.0000	   26.3476	    1.3194	    0.0000	
 -150.0000	1.048E-10	3.371E-7	  -20.0000	   26.3476	    1.3194	    0.0000	
 -160.0000	1.025E-10	3.231E-7	  -20.0000	   26.3476	    1.3194	    0.0000	
 -170.0000	1.002E-10	3.077E-7	  -20.0000	   26.3476	    1.3194	    0.0000	
 -180.0000	9.797E-11	2.958E-7	  -20.0000	   26.3476	    1.3194	    0.0000	
 -190.0000	9.634E-11	2.837E-7	  -20.0000	   26.3476	    1.3194	    0.0000	
 -200.0000	9.364E-11	2.686E-7	  -20.0000	   26.3476	    1.3194	    0.0000	
 -210.0000	9.254E-11	2.613E-7	  -20.0000	   26.3476	    1.3194	    0.0000	
 -220.0000	9.085E-11	2.533E-7	  -20.0000	   26.3476	    1.3194	    0.0000	
 -230.0000	8.867E-11	2.388E-7	  -20.0000	   26.3476	    1.3194	    0.0000	
 -240.0000	8.659E-11	2.341E-7	  -20.0000	   26.3476	    1.3194	    0.0000	
 -250.0000	8.588E-11	2.262E-7	  -20.0000	   26.3476	    1.3194	    0.0000	
 -260.0000	8.363E-11	2.151E-7	  -20.0000	   26.3476	    1.3194	    0.0000	
 -270.0000	8.232E-11	2.010E-7	  -20.0000	   26.3476	    1.3194	    0.0000	
 -280.0000	8.082E-11	1.956E-7	  -20.0000	   26.3476	    1.3194	    0.0000	
 -290.0000	8.010E-11	1.853E-7	  -20.0000	   26.3476	    1.3194	    0.0000	
 -300.0000	7.857E-11	1.817E-7	  -20.0000	   26.3476	    1.3194	    0.0000	
 -310.0000	7.640E-11	1.698E-7	  -20.0000	   26.3476	    1.3194	    0.0000	
 -320.0000	7.575E-11	1.666E-7	  -20.0000	   26.3476	    1.3194	    0.0000	
 -330.0000	7.414E-11	1.583E-7	  -20.0000	   26.3476	    1.3194	    0.0000	
 -340.0000	7.266E-11	1.520E-7	  -20.0000	   26.3476	    1.3194	    0.0000	
 -350.0000	7.207E-11	1.463E-7	  -20.0000	   26.3476	    1.3194	    0.0000	
 -360.0000	7.065E-11	1.418E-7	  -20.0000	   26.3476	    1.3194	    0.0000	
 -370.0000	6.845E-11	1.378E-7	  -20.0000	   26.3476	    1.3194	    0.0000	
 -380.0000	6.799E-11	1.273E-7	  -20.0000	   26.3476	    1.3194	    0.0000	
 -390.0000	6.681E-11	1.241E-7	  -20.0000	   26.3476	    1.3194	    0.0000	
 -400.0000	6.508E-11	1.140E-7	  -20.0000	   26.3476	    1.3194	    0.0000	
 -410.0000	6.484E-11	1.092E-7	  -20.0000	   26.3476	    1.3194	    0.0000	
 -420.0000	6.329E-11	1.003E-7	  -20.0000	   26.3476	    1.3194	    0.0000	
 -430.0000	6.177E-11	9.641E-8	  -20.0000	   26.3476	    1.3194	    0.0000	
 -440.0000	6.115E-11	8.811E-8	  -20.0000	   26.3476	    1.3194	    0.0000	
 -450.0000	5.995E-11	9.194E-8	  -20.0000	   26.3476	    1.3194	    0.0000	
 -460.0000	6.065E-11	7.657E-8	  -20.0000	   26.3476	    1.3194	    0.0000	
 -470.0000	5.821E-11	7.424E-8	  -20.0000	   26.3476	    1.3194	    0.0000	
 -480.0000	5.811E-11	6.888E-8	  -20.0000	   26.3476	    1.3194	    0.0000	
 -490.0000	5.768E-11	6.148E-8	  -20.0000	   26.3476	    1.3194	    0.0000	
 -500.0000	5.654E-11	5.660E-8	  -20.0000	   26.3476	    1.3194	    0.0000	
 -510.0000	5.558E-11	5.566E-8	  -20.0000	   26.3476	    1.3194	    0.0000	
 -520.0000	5.607E-11	5.586E-8	  -20.0000	   26.3476	    1.3194	    0.0000	
 -530.0000	5.587E-11	4.954E-8	  -20.0000	   26.3476	    1.3194	    0.0000	
 -540.0000	5.488E-11	5.003E-8	  -20.0000	   26.3476	    1.3194	    0.0000	
 -550.0000	5.432E-11	4.587E-8	  -20.0000	   26.3476	    1.3194	    0.0000	
 -560.0000	5.459E-11	4.226E-8	  -20.0000	   26.3476	    1.3194	    0.0000	
 -570.0000	5.513E-11	4.087E-8	  -20.0000	   26.3476	    1.3194	    0.0000	
 -580.0000	5.379E-11	3.951E-8	  -20.0000	   26.3476	    1.3194	    0.0000	
 -590.0000	5.390E-11	3.806E-8	  -20.0000	   26.3476	    1.3194	    0.0000	
 -600.0000	5.301E-11	3.856E-8	  -20.0000	   26.3476	    1.3194	    0.0000	
 -610.0000	5.321E-11	2.548E-8	  -20.0000	   26.3476	    1.3194	    0.0000	
 -620.0000	5.269E-11	2.515E-8	  -20.0000	   26.3476	    1.3194	    0.0000	
 -630.0000	5.354E-11	2.918E-8	  -20.0000	   26.3476	    1.3194	    0.0000	
 -640.0000	5.370E-11	2.640E-8	  -20.0000	   26.3476	    1.3194	    0.0000	
 -650.0000	5.258E-11	2.544E-8	  -20.0000	   26.3476	    1.3194	    0.0000	
 -660.0000	5.321E-11	2.249E-8	  -20.0000	   26.3476	    1.3194	    0.0000	
 -670.0000	5.267E-11	2.456E-8	  -20.0000	   26.3476	    1.3194	    0.0000	
 -680.0000	5.349E-11	2.548E-8	  -20.0000	   26.3476	    1.3194	    0.0000	
 -690.0000	5.308E-11	2.612E-8	  -20.0000	   26.3476	    1.3194	    0.0000	
 -700.0000	5.217E-11	2.500E-8	  -20.0000	   26.3476	    1.3194	    0.0000	
 -710.0000	5.252E-11	2.785E-8	  -20.0000	   26.3476	    1.3194	    0.0000	
 -720.0000	5.277E-11	1.866E-8	  -20.0000	   26.3476	    1.3194	    0.0000	
 -730.0000	5.209E-11	2.152E-8	  -20.0000	   26.3476	    1.3194	    0.0000	
 -740.0000	5.172E-11	2.554E-8	  -20.0000	   26.3476	    1.3194	    0.0000	
 -750.0000	5.369E-11	2.209E-8	  -20.0000	   26.3476	    1.3194	    0.0000	
 -760.0000	5.318E-11	1.735E-8	  -20.0000	   26.3476	    1.3194	    0.0000	
 -770.0000	5.353E-11	1.535E-8	  -20.0000	   26.3476	    1.3194	    0.0000	
 -780.0000	5.377E-11	2.573E-8	  -20.0000	   26.3476	    1.3194	    0.0000	
 -790.0000	5.201E-11	2.863E-8	  -20.0000	   26.3476	    1.3194	    0.0000	
 -800.0000	5.233E-11	1.025E-8	  -20.0000	   26.3476	    1.3194	    0.0000	
 -810.0000	5.308E-11	1.531E-8	  -20.0000	   26.3476	    1.3194	    0.0000	
 -820.0000	5.316E-11	1.128E-8	  -20.0000	   26.3476	    1.3194	    0.0000	
 -830.0000	5.315E-11	2.035E-8	  -20.0000	   26.3476	    1.3194	    0.0000	
 -840.0000	5.321E-11	2.652E-8	  -20.0000	   26.3476	    1.3194	    0.0000	
 -850.0000	5.240E-11	2.642E-8	  -20.0000	   26.3476	    1.3194	    0.0000	
 -860.0000	5.259E-11	1.728E-8	  -20.0000	   26.3476	    1.3194	    0.0000	
 -870.0000	5.302E-11	2.077E-8	  -20.0000	   26.3476	    1.3194	    0.0000	
 -880.0000	5.280E-11	2.408E-8	  -20.0000	   26.3476	    1.3194	    0.0000	
 -890.0000	5.318E-11	2.050E-8	  -20.0000	   26.3476	    1.3194	    0.0000	
 -900.0000	5.361E-11	1.590E-8	  -20.0000	   26.3476	    1.3194	    0.0000	
 -910.0000	5.332E-11	2.327E-8	  -20.0000	   26.3476	    1.3194	    0.0000	
 -920.0000	5.266E-11	1.664E-8	  -20.0000	   26.3476	    1.3194	    0.0000	
 -930.0000	5.295E-11	2.963E-8	  -20.0000	   26.3476	    1.3194	    0.0000	
 -940.0000	5.319E-11	2.801E-8	  -20.0000	   26.3476	    1.3194	    0.0000	
 -950.0000	5.373E-11	2.241E-8	  -20.0000	   26.3476	    1.3194	    0.0000	
 -960.0000	5.163E-11	1.810E-8	  -20.0000	   26.3476	    1.3194	    0.0000	
 -970.0000	5.254E-11	1.828E-8	  -20.0000	   26.3476	    1.3194	    0.0000	
 -980.0000	5.266E-11	1.674E-8	  -20.0000	   26.3476	    1.3194	    0.0000	
 -990.0000	5.295E-11	2.508E-8	  -20.0000	   26.3476	    1.3194	    0.0000	
-1000.0000	5.146E-11	1.820E-8	  -20.0000	   26.3476	    1.3194	    0.0000	
