GCD Test
Bias: 5000.000000
IV_34341_041_PSS_HM_XX_DIODE_Irradiated
Date/Time: 9/2/2021 8:42:37 PM
Sensor Name: DIODE
Type: P
Annealing Status: Irradiated and Annealed at 60C for 80 minutes
Environment: -20C
Tester: Andrew Kent

Time Delay per Ramp Step (s): 1.000

CV Time Delay per Measurement (s) :0.500

AC Voltage (V): 0.500

Current Number of measurements per voltage: 4.000

IV Time Delay per Measurement (s) :0.000


BiasVoltage	Total Current_Avg	Total Current_0	Total Current_1	Total Current_2	Total Current_3	Bias Current_Avg	Bias Current_0	Bias Current_1	Bias Current_2	Bias Current_3	Temperature	Air_Temp	Humidity	Dewpoint	
  -10.0000	-7.0282E-7	-7.0370E-7	-7.0290E-7	-7.0330E-7	-7.0140E-7	-7.100031E-7	-7.104160E-7	-7.102617E-7	-7.085953E-7	-7.107392E-7	  -19.9677	   10.4426	    4.7043	  -28.2482	
  -20.0000	-9.7463E-7	-9.7770E-7	-9.7330E-7	-9.7400E-7	-9.7350E-7	-9.819799E-7	-9.828648E-7	-9.832023E-7	-9.794195E-7	-9.824329E-7	  -19.9728	   10.4426	    4.7040	  -28.2490	
  -30.0000	-1.1865E-6	-1.1860E-6	-1.1860E-6	-1.1870E-6	-1.1870E-6	-1.185011E-6	-1.192207E-6	-1.185560E-6	-1.181884E-6	-1.180394E-6	  -19.9804	   10.4808	    4.6996	  -28.2317	
  -40.0000	-1.3627E-6	-1.3620E-6	-1.3620E-6	-1.3600E-6	-1.3670E-6	-1.371356E-6	-1.370364E-6	-1.376125E-6	-1.370508E-6	-1.368425E-6	  -19.9855	   10.4808	    4.6929	  -28.2469	
  -50.0000	-1.5243E-6	-1.5260E-6	-1.5250E-6	-1.5240E-6	-1.5220E-6	-1.516485E-6	-1.517719E-6	-1.517386E-6	-1.518711E-6	-1.512125E-6	  -19.9982	   10.4327	    4.6945	  -28.2775	
  -60.0000	-1.6625E-6	-1.6570E-6	-1.6630E-6	-1.6610E-6	-1.6690E-6	-1.674044E-6	-1.678959E-6	-1.672647E-6	-1.675653E-6	-1.668918E-6	  -19.9728	   10.2742	    4.7002	  -28.3777	
  -70.0000	-1.7973E-6	-1.8050E-6	-1.7950E-6	-1.7920E-6	-1.7970E-6	-1.784177E-6	-1.793550E-6	-1.786416E-6	-1.783522E-6	-1.773219E-6	  -19.9957	   10.3347	    4.6762	  -28.3893	
  -80.0000	-1.9097E-6	-1.9140E-6	-1.9090E-6	-1.9070E-6	-1.9090E-6	-1.904056E-6	-1.915212E-6	-1.904575E-6	-1.899433E-6	-1.897002E-6	  -19.9804	   10.3347	    4.6888	  -28.3604	
  -90.0000	-2.0247E-6	-2.0310E-6	-2.0260E-6	-2.0240E-6	-2.0180E-6	-2.028838E-6	-2.019675E-6	-2.032923E-6	-2.029267E-6	-2.033486E-6	  -19.9753	   10.3860	    4.6749	  -28.3556	
 -100.0000	-2.1330E-6	-2.1350E-6	-2.1310E-6	-2.1300E-6	-2.1360E-6	-2.134054E-6	-2.135791E-6	-2.127888E-6	-2.135465E-6	-2.137071E-6	  -19.9779	   10.5290	    4.6787	  -28.2450	
 -110.0000	-2.2345E-6	-2.2360E-6	-2.2300E-6	-2.2360E-6	-2.2360E-6	-2.222810E-6	-2.238130E-6	-2.222089E-6	-2.212138E-6	-2.218882E-6	  -20.0008	   10.6032	    4.6657	  -28.2217	
 -120.0000	-2.3273E-6	-2.3320E-6	-2.3180E-6	-2.3250E-6	-2.3340E-6	-2.339962E-6	-2.333221E-6	-2.339205E-6	-2.345380E-6	-2.342044E-6	  -20.0262	   10.6032	    4.6771	  -28.1956	
 -130.0000	-2.4168E-6	-2.4200E-6	-2.4090E-6	-2.4150E-6	-2.4230E-6	-2.420554E-6	-2.417243E-6	-2.418760E-6	-2.422312E-6	-2.423900E-6	  -20.0440	   10.6023	    4.6733	  -28.2049	
 -140.0000	-2.5130E-6	-2.5190E-6	-2.5160E-6	-2.5080E-6	-2.5090E-6	-2.512292E-6	-2.504063E-6	-2.511421E-6	-2.524266E-6	-2.509419E-6	  -20.0516	   10.6066	    4.6961	  -28.1499	
 -150.0000	-2.6008E-6	-2.6120E-6	-2.5960E-6	-2.6030E-6	-2.5920E-6	-2.597200E-6	-2.596647E-6	-2.596868E-6	-2.595976E-6	-2.599308E-6	  -20.0440	   10.6066	    4.7065	  -28.1261	
 -160.0000	-2.6868E-6	-2.6860E-6	-2.6890E-6	-2.6840E-6	-2.6880E-6	-2.689453E-6	-2.691737E-6	-2.698416E-6	-2.685018E-6	-2.682641E-6	  -20.0415	   10.6449	    4.7122	  -28.0859	
 -170.0000	-2.7660E-6	-2.7670E-6	-2.7580E-6	-2.7750E-6	-2.7640E-6	-2.768470E-6	-2.770604E-6	-2.773025E-6	-2.759632E-6	-2.770620E-6	  -20.0567	   10.6280	    4.7464	  -28.0205	
 -180.0000	-2.8492E-6	-2.8510E-6	-2.8490E-6	-2.8540E-6	-2.8430E-6	-2.838326E-6	-2.834496E-6	-2.833629E-6	-2.850028E-6	-2.835152E-6	  -20.0465	   10.6280	    4.7584	  -27.9934	
 -190.0000	-2.9067E-6	-2.8960E-6	-2.9090E-6	-2.9090E-6	-2.9130E-6	-2.908597E-6	-2.906611E-6	-2.905614E-6	-2.907185E-6	-2.914978E-6	  -20.0465	   10.5107	    4.7878	  -28.0112	
 -200.0000	-2.9858E-6	-3.0060E-6	-2.9890E-6	-2.9750E-6	-2.9730E-6	-2.981796E-6	-2.995514E-6	-2.982358E-6	-2.973833E-6	-2.975480E-6	  -20.0516	   10.5327	    4.7900	  -27.9905	
 -210.0000	-3.0632E-6	-3.0630E-6	-3.0640E-6	-3.0620E-6	-3.0640E-6	-3.072579E-6	-3.065139E-6	-3.066403E-6	-3.083551E-6	-3.075222E-6	  -20.0313	   10.5337	    4.8324	  -27.8953	
 -220.0000	-3.1490E-6	-3.1540E-6	-3.1610E-6	-3.1350E-6	-3.1460E-6	-3.151764E-6	-3.147676E-6	-3.148291E-6	-3.152454E-6	-3.158633E-6	  -20.0262	   10.5337	    4.8472	  -27.8624	
 -230.0000	-3.2233E-6	-3.2240E-6	-3.2220E-6	-3.2270E-6	-3.2200E-6	-3.207334E-6	-3.201459E-6	-3.203887E-6	-3.203155E-6	-3.220837E-6	  -20.0262	   10.5155	    4.8564	  -27.8551	
 -240.0000	-3.2737E-6	-3.2700E-6	-3.2760E-6	-3.2780E-6	-3.2710E-6	-3.269919E-6	-3.283823E-6	-3.268280E-6	-3.265122E-6	-3.262450E-6	  -20.0160	   10.4426	    4.8710	  -27.8752	
 -250.0000	-3.3485E-6	-3.3380E-6	-3.3380E-6	-3.3520E-6	-3.3660E-6	-3.355536E-6	-3.351083E-6	-3.359877E-6	-3.356839E-6	-3.354344E-6	  -19.9982	   10.5147	    4.9213	  -27.7133	
 -260.0000	-3.4122E-6	-3.4110E-6	-3.4240E-6	-3.4060E-6	-3.4080E-6	-3.429554E-6	-3.419199E-6	-3.424567E-6	-3.442917E-6	-3.431534E-6	  -20.0033	   10.4903	    4.9247	  -27.7232	
 -270.0000	-3.4748E-6	-3.4760E-6	-3.4730E-6	-3.4780E-6	-3.4720E-6	-3.473301E-6	-3.479825E-6	-3.471428E-6	-3.477448E-6	-3.464502E-6	  -20.0109	   10.3869	    4.9497	  -27.7430	
 -280.0000	-3.5117E-6	-3.5020E-6	-3.5140E-6	-3.5110E-6	-3.5200E-6	-3.517760E-6	-3.510664E-6	-3.508797E-6	-3.518477E-6	-3.533101E-6	  -20.0186	   10.4348	    4.9627	  -27.6805	
 -290.0000	-3.5733E-6	-3.5720E-6	-3.5700E-6	-3.5770E-6	-3.5740E-6	-3.578142E-6	-3.574907E-6	-3.578784E-6	-3.588077E-6	-3.570801E-6	  -20.0059	   10.4316	    4.9756	  -27.6547	
 -300.0000	-3.6360E-6	-3.6380E-6	-3.6290E-6	-3.6390E-6	-3.6380E-6	-3.625105E-6	-3.628787E-6	-3.631785E-6	-3.621477E-6	-3.618369E-6	  -19.9982	   10.4549	    4.9788	  -27.6311	
 -310.0000	-3.6870E-6	-3.6830E-6	-3.6830E-6	-3.6940E-6	-3.6880E-6	-3.697327E-6	-3.689653E-6	-3.702007E-6	-3.696218E-6	-3.701432E-6	  -19.9906	   10.3828	    4.9899	  -27.6590	
 -320.0000	-3.7407E-6	-3.7590E-6	-3.7420E-6	-3.7320E-6	-3.7300E-6	-3.735189E-6	-3.730839E-6	-3.740517E-6	-3.728601E-6	-3.740799E-6	  -19.9855	   10.3947	    4.9927	  -27.6443	
 -330.0000	-3.7865E-6	-3.7970E-6	-3.7790E-6	-3.7780E-6	-3.7920E-6	-3.783201E-6	-3.798457E-6	-3.783107E-6	-3.777142E-6	-3.774097E-6	  -19.9804	   10.3184	    4.9953	  -27.6937	
 -340.0000	-3.8223E-6	-3.8240E-6	-3.8100E-6	-3.8290E-6	-3.8260E-6	-3.830015E-6	-3.832932E-6	-3.827605E-6	-3.833003E-6	-3.826522E-6	  -19.9728	   10.3164	    5.0095	  -27.6645	
 -350.0000	-3.8885E-6	-3.9080E-6	-3.9000E-6	-3.8790E-6	-3.8670E-6	-3.882447E-6	-3.887153E-6	-3.881308E-6	-3.883390E-6	-3.877936E-6	  -19.9652	   10.4212	    5.0076	  -27.5933	
 -360.0000	-3.9142E-6	-3.9040E-6	-3.9160E-6	-3.9130E-6	-3.9240E-6	-3.924925E-6	-3.930063E-6	-3.922045E-6	-3.924507E-6	-3.923083E-6	  -19.9677	   10.4306	    5.0120	  -27.5771	
 -370.0000	-3.9673E-6	-3.9600E-6	-3.9640E-6	-3.9760E-6	-3.9690E-6	-3.977155E-6	-3.981219E-6	-3.973357E-6	-3.974448E-6	-3.979594E-6	  -19.9575	   10.5156	    5.0133	  -27.5133	
 -380.0000	-4.0065E-6	-4.0030E-6	-3.9980E-6	-4.0060E-6	-4.0190E-6	-4.007388E-6	-4.016197E-6	-3.998803E-6	-3.997413E-6	-4.017139E-6	  -19.9652	   10.4823	    5.0032	  -27.5590	
 -390.0000	-4.0408E-6	-4.0310E-6	-4.0480E-6	-4.0420E-6	-4.0420E-6	-4.039506E-6	-4.033121E-6	-4.032627E-6	-4.043427E-6	-4.048847E-6	  -19.9652	   10.4377	    4.9832	  -27.6340	
 -400.0000	-4.0762E-6	-4.0850E-6	-4.0700E-6	-4.0680E-6	-4.0820E-6	-4.079460E-6	-4.080850E-6	-4.078509E-6	-4.084043E-6	-4.074438E-6	  -19.9728	   10.4663	    4.9836	  -27.6127	
 -410.0000	-4.1097E-6	-4.1130E-6	-4.1040E-6	-4.1170E-6	-4.1050E-6	-4.097167E-6	-4.095843E-6	-4.099234E-6	-4.091934E-6	-4.101658E-6	  -19.9880	   10.3492	    4.9674	  -27.7316	
 -420.0000	-4.1378E-6	-4.1350E-6	-4.1320E-6	-4.1450E-6	-4.1390E-6	-4.133772E-6	-4.124047E-6	-4.134048E-6	-4.138964E-6	-4.138028E-6	  -20.0059	   10.3641	    4.9665	  -27.7230	
 -430.0000	-4.1755E-6	-4.1810E-6	-4.1740E-6	-4.1850E-6	-4.1620E-6	-4.149346E-6	-4.162795E-6	-4.153844E-6	-4.137305E-6	-4.143441E-6	  -20.0084	   10.3641	    4.9684	  -27.7189	
 -440.0000	-4.2018E-6	-4.1980E-6	-4.1980E-6	-4.2120E-6	-4.1990E-6	-4.201615E-6	-4.196439E-6	-4.194416E-6	-4.207945E-6	-4.207662E-6	  -20.0186	   10.3614	    4.9684	  -27.7208	
 -450.0000	-4.2287E-6	-4.2120E-6	-4.2360E-6	-4.2310E-6	-4.2360E-6	-4.235137E-6	-4.235226E-6	-4.239906E-6	-4.240647E-6	-4.224770E-6	  -20.0160	   10.3488	    4.9554	  -27.7580	
 -460.0000	-4.2860E-6	-4.2820E-6	-4.2870E-6	-4.2840E-6	-4.2910E-6	-4.288420E-6	-4.299875E-6	-4.290988E-6	-4.284431E-6	-4.278385E-6	  -20.0160	   10.4816	    4.9655	  -27.6407	
 -470.0000	-4.3032E-6	-4.3040E-6	-4.3030E-6	-4.3020E-6	-4.3040E-6	-4.320469E-6	-4.312936E-6	-4.326691E-6	-4.325039E-6	-4.317211E-6	  -20.0059	   10.4816	    4.9779	  -27.6141	
 -480.0000	-4.3533E-6	-4.3450E-6	-4.3600E-6	-4.3610E-6	-4.3470E-6	-4.353763E-6	-4.347470E-6	-4.356846E-6	-4.352626E-6	-4.358108E-6	  -20.0186	   10.4907	    4.9769	  -27.6096	
 -490.0000	-4.3842E-6	-4.3750E-6	-4.3740E-6	-4.3940E-6	-4.3940E-6	-4.379598E-6	-4.388608E-6	-4.386637E-6	-4.381423E-6	-4.361724E-6	  -20.0135	   10.3466	    4.9782	  -27.7102	
 -500.0000	-4.4122E-6	-4.4090E-6	-4.4220E-6	-4.4040E-6	-4.4140E-6	-4.401000E-6	-4.401327E-6	-4.387974E-6	-4.400396E-6	-4.414303E-6	  -20.0059	   10.3969	    4.9908	  -27.6468	
 -510.0000	-4.4422E-6	-4.4600E-6	-4.4500E-6	-4.4350E-6	-4.4240E-6	-4.446235E-6	-4.418782E-6	-4.454864E-6	-4.452797E-6	-4.458497E-6	  -20.0059	   10.3714	    5.0006	  -27.6441	
 -520.0000	-4.4697E-6	-4.4790E-6	-4.4710E-6	-4.4560E-6	-4.4730E-6	-4.471531E-6	-4.467505E-6	-4.468782E-6	-4.468579E-6	-4.481259E-6	  -20.0135	   10.3904	    4.9997	  -27.6325	
 -530.0000	-4.4732E-6	-4.4650E-6	-4.4690E-6	-4.4790E-6	-4.4800E-6	-4.488838E-6	-4.491178E-6	-4.482006E-6	-4.471971E-6	-4.510197E-6	  -20.0135	   10.4904	    5.0051	  -27.5491	
 -540.0000	-4.5305E-6	-4.5290E-6	-4.5520E-6	-4.5290E-6	-4.5120E-6	-4.518374E-6	-4.501413E-6	-4.531721E-6	-4.509234E-6	-4.531128E-6	  -20.0084	   10.4290	    5.0060	  -27.5911	
 -550.0000	-4.5460E-6	-4.5420E-6	-4.5270E-6	-4.5560E-6	-4.5590E-6	-4.549030E-6	-4.551538E-6	-4.543044E-6	-4.542535E-6	-4.559003E-6	  -20.0059	   10.3813	    5.0120	  -27.6125	
 -560.0000	-4.5763E-6	-4.5970E-6	-4.5750E-6	-4.5630E-6	-4.5700E-6	-4.583457E-6	-4.574830E-6	-4.579297E-6	-4.579767E-6	-4.599933E-6	  -20.0059	   10.4638	    5.0079	  -27.5621	
 -570.0000	-4.6075E-6	-4.5960E-6	-4.6040E-6	-4.6270E-6	-4.6030E-6	-4.597468E-6	-4.601709E-6	-4.596064E-6	-4.580163E-6	-4.611936E-6	  -19.9982	   10.3836	    5.0070	  -27.6217	
 -580.0000	-4.6358E-6	-4.6180E-6	-4.6550E-6	-4.6380E-6	-4.6320E-6	-4.637686E-6	-4.617016E-6	-4.627912E-6	-4.649782E-6	-4.656035E-6	  -20.0084	   10.3476	    5.0278	  -27.6028	
 -590.0000	-4.6710E-6	-4.6680E-6	-4.6690E-6	-4.6710E-6	-4.6760E-6	-4.671280E-6	-4.691930E-6	-4.667953E-6	-4.654930E-6	-4.670307E-6	  -20.0109	   10.4459	    5.0367	  -27.5132	
 -600.0000	-4.6972E-6	-4.7000E-6	-4.6840E-6	-4.7100E-6	-4.6950E-6	-4.690769E-6	-4.679440E-6	-4.698922E-6	-4.694737E-6	-4.689979E-6	  -20.0008	   10.4193	    5.0493	  -27.5054	
 -610.0000	-4.7207E-6	-4.7370E-6	-4.7250E-6	-4.7120E-6	-4.7090E-6	-4.722049E-6	-4.719792E-6	-4.734236E-6	-4.717433E-6	-4.716736E-6	  -20.0135	   10.4771	    5.0588	  -27.4436	
 -620.0000	-4.7720E-6	-4.7680E-6	-4.7860E-6	-4.7720E-6	-4.7620E-6	-4.751959E-6	-4.756444E-6	-4.754329E-6	-4.756288E-6	-4.740776E-6	  -20.0262	   10.2863	    4.9994	  -27.7079	
 -630.0000	-4.7560E-6	-4.7720E-6	-4.7530E-6	-4.7360E-6	-4.7630E-6	-4.764484E-6	-4.775742E-6	-4.760323E-6	-4.764421E-6	-4.757451E-6	  -20.0160	   10.2203	    5.0111	  -27.7302	
 -640.0000	-4.7982E-6	-4.8020E-6	-4.8040E-6	-4.7960E-6	-4.7910E-6	-4.802801E-6	-4.812452E-6	-4.813352E-6	-4.790790E-6	-4.794612E-6	  -20.0109	   10.2069	    5.0161	  -27.7290	
 -650.0000	-4.8143E-6	-4.8170E-6	-4.8080E-6	-4.8070E-6	-4.8250E-6	-4.812471E-6	-4.828139E-6	-4.812299E-6	-4.807277E-6	-4.802169E-6	  -20.0059	   10.3331	    5.0019	  -27.6689	
 -660.0000	-4.8385E-6	-4.8540E-6	-4.8410E-6	-4.8290E-6	-4.8300E-6	-4.831981E-6	-4.823703E-6	-4.834543E-6	-4.834125E-6	-4.835551E-6	  -19.9931	   10.3785	    4.9949	  -27.6513	
 -670.0000	-4.8865E-6	-4.8790E-6	-4.9010E-6	-4.8750E-6	-4.8910E-6	-4.850803E-6	-4.879132E-6	-4.855106E-6	-4.838784E-6	-4.830192E-6	  -19.9957	   10.3691	    5.0063	  -27.6335	
 -680.0000	-4.8925E-6	-4.8900E-6	-4.8850E-6	-4.8910E-6	-4.9040E-6	-4.880528E-6	-4.902556E-6	-4.868213E-6	-4.866492E-6	-4.884853E-6	  -19.9855	   10.3005	    5.0016	  -27.6930	
 -690.0000	-4.9112E-6	-4.9040E-6	-4.9080E-6	-4.9180E-6	-4.9150E-6	-4.914458E-6	-4.909149E-6	-4.914817E-6	-4.919781E-6	-4.914084E-6	  -19.9855	   10.2798	    5.0215	  -27.6651	
 -700.0000	-4.9238E-6	-4.9270E-6	-4.9130E-6	-4.9250E-6	-4.9300E-6	-4.952547E-6	-4.941094E-6	-4.950982E-6	-4.966020E-6	-4.952091E-6	  -19.9830	   10.3806	    4.9991	  -27.6409	
 -710.0000	-4.9432E-6	-4.9340E-6	-4.9440E-6	-4.9510E-6	-4.9440E-6	-4.929419E-6	-4.922464E-6	-4.942789E-6	-4.930490E-6	-4.921933E-6	  -19.9880	   10.3806	    5.0187	  -27.5988	
 -720.0000	-4.9600E-6	-4.9290E-6	-4.9530E-6	-4.9780E-6	-4.9800E-6	-4.979032E-6	-4.984394E-6	-4.983301E-6	-4.974313E-6	-4.974122E-6	  -20.0008	   10.3491	    4.9987	  -27.6642	
 -730.0000	-5.0152E-6	-5.0240E-6	-5.0180E-6	-5.0030E-6	-5.0160E-6	-4.986108E-6	-5.010583E-6	-5.000248E-6	-4.973894E-6	-4.959708E-6	  -20.0084	   10.3076	    5.0035	  -27.6838	
 -740.0000	-5.0138E-6	-5.0100E-6	-5.0050E-6	-5.0160E-6	-5.0240E-6	-5.012535E-6	-5.017934E-6	-5.012568E-6	-5.017329E-6	-5.002307E-6	  -20.0084	   10.2843	    4.9946	  -27.7196	
 -750.0000	-5.0615E-6	-5.0220E-6	-5.0540E-6	-5.0800E-6	-5.0900E-6	-5.089193E-6	-5.112665E-6	-5.089343E-6	-5.076522E-6	-5.078241E-6	  -20.0109	   10.2843	    5.0127	  -27.6808	
 -760.0000	-5.0727E-6	-5.0870E-6	-5.0840E-6	-5.0630E-6	-5.0570E-6	-5.045602E-6	-5.053646E-6	-5.044104E-6	-5.035050E-6	-5.049610E-6	  -20.0237	   10.2716	    5.0038	  -27.7090	
 -770.0000	-5.0787E-6	-5.0770E-6	-5.0790E-6	-5.0710E-6	-5.0880E-6	-5.091475E-6	-5.085130E-6	-5.100387E-6	-5.105335E-6	-5.075047E-6	  -20.0135	   10.0489	    5.0016	  -27.8737	
 -780.0000	-5.0980E-6	-5.0920E-6	-5.1050E-6	-5.0940E-6	-5.1010E-6	-5.085385E-6	-5.077929E-6	-5.086861E-6	-5.087478E-6	-5.089273E-6	  -20.0287	   10.0237	    4.9756	  -27.9476	
 -790.0000	-5.1477E-6	-5.1350E-6	-5.1550E-6	-5.1420E-6	-5.1590E-6	-5.145954E-6	-5.146762E-6	-5.136234E-6	-5.155600E-6	-5.145220E-6	  -20.0389	    9.9662	    4.9864	  -27.9657	
 -800.0000	-5.1708E-6	-5.1730E-6	-5.1830E-6	-5.1630E-6	-5.1640E-6	-5.166237E-6	-5.174872E-6	-5.151084E-6	-5.166008E-6	-5.172982E-6	  -20.0287	    9.9564	    4.9725	  -28.0028	
 -810.0000	-5.1700E-6	-5.1530E-6	-5.1620E-6	-5.1770E-6	-5.1880E-6	-5.178027E-6	-5.197240E-6	-5.169176E-6	-5.161688E-6	-5.184004E-6	  -20.0033	    9.9833	    4.9611	  -28.0080	
 -820.0000	-5.2085E-6	-5.2290E-6	-5.2100E-6	-5.1960E-6	-5.1990E-6	-5.201074E-6	-5.199227E-6	-5.197210E-6	-5.203347E-6	-5.204512E-6	  -19.9880	   10.0093	    4.9639	  -27.9832	
 -830.0000	-5.2230E-6	-5.2160E-6	-5.2190E-6	-5.2150E-6	-5.2420E-6	-5.220233E-6	-5.247708E-6	-5.222570E-6	-5.208538E-6	-5.202117E-6	  -20.0033	    9.9629	    4.9671	  -28.0097	
 -840.0000	-5.2330E-6	-5.2380E-6	-5.2230E-6	-5.2350E-6	-5.2360E-6	-5.236477E-6	-5.237155E-6	-5.259260E-6	-5.238177E-6	-5.211318E-6	  -19.9931	    9.9274	    4.9608	  -28.0488	
 -850.0000	-5.2515E-6	-5.2470E-6	-5.2570E-6	-5.2470E-6	-5.2550E-6	-5.267007E-6	-5.279574E-6	-5.256777E-6	-5.260685E-6	-5.270993E-6	  -19.9830	   10.0263	    4.9564	  -27.9874	
 -860.0000	-5.2717E-6	-5.2660E-6	-5.2670E-6	-5.2670E-6	-5.2870E-6	-5.304806E-6	-5.308279E-6	-5.302976E-6	-5.301903E-6	-5.306065E-6	  -19.9575	   10.1703	    4.9307	  -27.9396	
 -870.0000	-5.2978E-6	-5.3070E-6	-5.2860E-6	-5.3020E-6	-5.2960E-6	-5.310680E-6	-5.309351E-6	-5.303788E-6	-5.303316E-6	-5.326264E-6	  -19.9626	   10.2090	    4.9459	  -27.8789	
 -880.0000	-5.3460E-6	-5.3490E-6	-5.3600E-6	-5.3370E-6	-5.3380E-6	-5.334903E-6	-5.347565E-6	-5.347174E-6	-5.320596E-6	-5.324275E-6	  -19.9728	   10.1550	    4.9213	  -27.9712	
 -890.0000	-5.3433E-6	-5.3550E-6	-5.3460E-6	-5.3380E-6	-5.3340E-6	-5.335322E-6	-5.335075E-6	-5.336756E-6	-5.335435E-6	-5.334023E-6	  -19.9830	   10.1077	    4.9298	  -27.9866	
 -900.0000	-5.3273E-6	-5.3400E-6	-5.3220E-6	-5.3250E-6	-5.3220E-6	-5.349183E-6	-5.358286E-6	-5.346065E-6	-5.333064E-6	-5.359317E-6	  -19.9753	   10.0080	    4.9352	  -28.0464	
 -910.0000	-5.3580E-6	-5.3690E-6	-5.3500E-6	-5.3450E-6	-5.3680E-6	-5.371834E-6	-5.379821E-6	-5.364690E-6	-5.370255E-6	-5.372569E-6	  -19.9753	   10.2122	    4.9744	  -27.8150	
 -920.0000	-5.3800E-6	-5.3590E-6	-5.3980E-6	-5.3830E-6	-5.3800E-6	-5.416518E-6	-5.389260E-6	-5.420758E-6	-5.418828E-6	-5.437227E-6	  -19.9855	   10.2122	    4.9671	  -27.8307	
 -930.0000	-5.3935E-6	-5.3750E-6	-5.3750E-6	-5.4240E-6	-5.4000E-6	-5.397941E-6	-5.393327E-6	-5.403680E-6	-5.397148E-6	-5.397609E-6	  -19.9957	   10.2179	    4.9750	  -27.8095	
 -940.0000	-5.4018E-6	-5.4110E-6	-5.3970E-6	-5.3940E-6	-5.4050E-6	-5.413362E-6	-5.413458E-6	-5.408111E-6	-5.415151E-6	-5.416729E-6	  -19.9855	   10.2089	    4.9576	  -27.8536	
 -950.0000	-5.4270E-6	-5.4490E-6	-5.4050E-6	-5.4150E-6	-5.4390E-6	-5.417652E-6	-5.421243E-6	-5.412879E-6	-5.417850E-6	-5.418637E-6	  -19.9906	   10.2504	    4.9529	  -27.8341	
 -960.0000	-5.4490E-6	-5.4450E-6	-5.4520E-6	-5.4550E-6	-5.4440E-6	-5.441997E-6	-5.431295E-6	-5.447891E-6	-5.431582E-6	-5.457218E-6	  -20.0059	   10.3055	    4.9529	  -27.7945	
 -970.0000	-5.4482E-6	-5.4590E-6	-5.4410E-6	-5.4410E-6	-5.4520E-6	-5.454373E-6	-5.468569E-6	-5.445889E-6	-5.464217E-6	-5.438818E-6	  -20.0059	   10.2680	    4.9491	  -27.8296	
 -980.0000	-5.4928E-6	-5.4770E-6	-5.4960E-6	-5.5020E-6	-5.4960E-6	-5.475989E-6	-5.489575E-6	-5.480048E-6	-5.459146E-6	-5.475189E-6	  -20.0186	   10.2799	    4.9526	  -27.8136	
 -990.0000	-5.5328E-6	-5.5230E-6	-5.5360E-6	-5.5430E-6	-5.5290E-6	-5.522147E-6	-5.502087E-6	-5.537201E-6	-5.520749E-6	-5.528550E-6	  -20.0160	   10.2502	    4.9535	  -27.8328	
-1000.0000	-5.5548E-6	-5.5410E-6	-5.5580E-6	-5.5680E-6	-5.5520E-6	-5.545242E-6	-5.554257E-6	-5.536634E-6	-5.562410E-6	-5.527666E-6	  -20.0364	   10.2542	    4.9655	  -27.8039	
