GCD Test
Bias: 5000.000000
CV_34343_015_PSS_HM_XX_DIODEHALFPSTOP_GRConnected
Date/Time: 7/14/2021 5:22:35 PM
Sensor Name: DIODEHALFPSTOP
Type: P
Annealing Status: Not Irradiated
Environment: 20C
Tester: Andrew Kent

Time Delay per Ramp Step (s): 0.500

CV Time Delay per Measurement (s) :0.500

AC Voltage (V): 0.500

Current Number of measurements per voltage: 1.000

IV Time Delay per Measurement (s) :0.000


BiasVoltage	LCR_Cp_freq1000.0	LCR_Rp_freq1000.0	Temperature	Air_Temp	Humidity	Dewpoint	
   -5.0000	1.988E-11	2.027E+9	   19.9884	   20.8348	   29.7884	    2.5331	
  -10.0000	1.542E-11	2.349E+9	   20.0399	   20.8286	   29.4456	    2.3653	
  -15.0000	1.338E-11	2.352E+9	   20.1120	   20.8371	   28.9358	    2.1279	
  -20.0000	1.216E-11	2.290E+9	   20.1454	   20.8351	   28.5626	    1.9446	
  -25.0000	1.131E-11	2.184E+9	   20.1480	   20.8393	   28.2619	    1.8003	
  -30.0000	1.068E-11	2.226E+9	   20.1042	   20.8393	   27.9766	    1.6587	
  -35.0000	1.021E-11	2.320E+9	   20.0656	   20.8420	   27.8485	    1.5970	
  -40.0000	9.810E-12	2.082E+9	   20.0167	   20.8437	   27.7217	    1.5350	
  -45.0000	9.486E-12	2.317E+9	   19.9730	   20.8360	   27.6116	    1.4729	
  -50.0000	9.210E-12	2.138E+9	   19.9318	   20.8360	   27.5098	    1.4215	
  -55.0000	8.970E-12	2.242E+9	   19.9061	   20.8367	   27.4380	    1.3858	
  -60.0000	8.764E-12	2.297E+9	   19.8906	   20.8392	   27.3460	    1.3411	
  -65.0000	8.582E-12	2.054E+9	   19.8958	   20.8371	   27.2840	    1.3077	
  -70.0000	8.386E-12	2.135E+9	   19.9189	   20.8375	   27.2369	    1.2840	
  -75.0000	8.243E-12	2.472E+9	   19.9550	   20.8385	   27.1806	    1.2562	
  -80.0000	8.112E-12	2.236E+9	   19.9961	   20.8372	   27.1335	    1.2309	
  -85.0000	7.995E-12	2.325E+9	   20.0476	   20.8401	   27.0800	    1.2060	
  -90.0000	7.878E-12	2.486E+9	   20.0939	   20.8337	   27.0500	    1.1852	
  -95.0000	7.776E-12	2.315E+9	   20.1326	   20.8439	   27.0079	    1.1723	
 -100.0000	7.685E-12	2.137E+9	   20.1531	   20.8415	   26.9687	    1.1500	
 -105.0000	7.596E-12	2.345E+9	   20.1531	   20.8392	   26.9349	    1.1306	
 -110.0000	7.517E-12	2.275E+9	   20.1351	   20.8455	   26.9077	    1.1220	
 -115.0000	7.437E-12	2.583E+9	   20.1042	   20.8420	   26.8830	    1.1063	
 -120.0000	7.371E-12	2.386E+9	   20.0579	   20.8407	   26.8510	    1.0886	
 -125.0000	7.310E-12	2.480E+9	   20.0116	   20.8361	   26.8270	    1.0723	
 -130.0000	7.240E-12	2.468E+9	   19.9627	   20.8309	   26.8080	    1.0580	
 -135.0000	7.183E-12	2.668E+9	   19.9241	   20.8386	   26.7887	    1.0546	
 -140.0000	7.128E-12	2.416E+9	   19.8932	   20.8386	   26.7802	    1.0546	
 -145.0000	7.082E-12	2.776E+9	   19.8829	   20.8405	   26.7650	    1.0439	
 -150.0000	7.025E-12	2.608E+9	   19.8906	   20.8392	   26.7400	    1.0299	
 -155.0000	6.979E-12	2.650E+9	   19.9138	   20.8393	   26.7369	    1.0283	
 -160.0000	6.933E-12	2.543E+9	   19.9575	   20.8400	   26.7252	    1.0229	
 -165.0000	6.892E-12	2.588E+9	   20.0039	   20.8486	   26.7233	    1.0292	
 -170.0000	6.845E-12	2.764E+9	   20.0631	   20.8439	   26.7008	    1.0135	
 -175.0000	6.812E-12	2.604E+9	   20.0631	   20.8439	   26.7008	    1.0135	
 -180.0000	6.764E-12	2.417E+9	   20.1300	   20.8441	   26.7002	    1.0134	
 -185.0000	6.728E-12	2.887E+9	   20.1634	   20.8463	   26.6803	    1.0048	
 -190.0000	6.696E-12	2.860E+9	   20.1531	   20.8438	   26.6591	    0.9917	
 -195.0000	6.655E-12	2.543E+9	   20.1171	   20.8362	   26.6414	    0.9760	
 -200.0000	6.622E-12	2.557E+9	   20.0734	   20.8400	   26.6509	    0.9842	
 -205.0000	6.591E-12	2.984E+9	   20.0270	   20.8429	   26.6281	    0.9748	
 -210.0000	6.559E-12	2.555E+9	   20.0270	   20.8429	   26.6281	    0.9748	
 -215.0000	6.519E-12	2.386E+9	   19.9601	   20.8298	   26.6233	    0.9612	
 -220.0000	6.488E-12	2.415E+9	   19.9086	   20.8377	   26.6126	    0.9624	
 -225.0000	6.462E-12	2.677E+9	   19.8906	   20.8286	   26.6028	    0.9494	
 -230.0000	6.430E-12	2.877E+9	   19.8855	   20.8382	   26.6088	    0.9608	
 -235.0000	6.408E-12	2.920E+9	   19.9086	   20.8425	   26.6085	    0.9642	
 -240.0000	6.393E-12	2.669E+9	   19.9421	   20.8289	   26.6022	    0.9494	
 -245.0000	6.380E-12	2.574E+9	   19.9961	   20.8205	   26.5917	    0.9367	
 -250.0000	6.369E-12	2.647E+9	   20.0528	   20.8225	   26.5895	    0.9373	
 -255.0000	6.368E-12	2.691E+9	   20.1120	   20.8229	   26.5683	    0.9266	
 -260.0000	6.365E-12	2.523E+9	   20.1531	   20.8267	   26.5664	    0.9289	
 -265.0000	6.361E-12	2.403E+9	   20.1815	   20.8300	   26.5604	    0.9285	
 -270.0000	6.362E-12	2.546E+9	   20.1789	   20.8251	   26.5645	    0.9265	
 -275.0000	6.357E-12	2.375E+9	   20.1042	   20.8363	   26.5462	    0.9265	
 -280.0000	6.356E-12	2.582E+9	   20.0579	   20.8335	   26.5522	    0.9272	
 -285.0000	6.354E-12	2.442E+9	   20.0142	   20.8303	   26.5386	    0.9174	
 -290.0000	6.349E-12	2.456E+9	   19.9704	   20.8336	   26.5408	    0.9214	
 -295.0000	6.354E-12	2.486E+9	   19.9395	   20.8277	   26.5335	    0.9126	
 -300.0000	6.347E-12	2.429E+9	   19.9215	   20.8276	   26.5275	    0.9094	
 -305.0000	6.347E-12	2.543E+9	   19.9215	   20.8311	   26.5304	    0.9138	
 -310.0000	6.347E-12	2.491E+9	   19.9421	   20.8296	   26.5215	    0.9079	
 -315.0000	6.349E-12	2.909E+9	   19.9884	   20.8325	   26.5376	    0.9188	
 -320.0000	6.349E-12	2.551E+9	   20.0373	   20.8325	   26.5335	    0.9166	
 -325.0000	6.352E-12	2.912E+9	   20.0708	   20.8386	   26.5253	    0.9176	
 -330.0000	6.349E-12	2.889E+9	   20.1042	   20.8414	   26.5332	    0.9241	
 -335.0000	6.345E-12	2.417E+9	   20.1274	   20.8330	   26.5237	    0.9119	
 -340.0000	6.340E-12	2.422E+9	   20.1197	   20.8397	   26.5183	    0.9148	
 -345.0000	6.347E-12	2.635E+9	   20.0914	   20.8385	   26.5089	    0.9088	
 -350.0000	6.343E-12	2.582E+9	   20.0399	   20.8385	   26.5051	    0.9069	
 -355.0000	6.342E-12	2.498E+9	   19.9884	   20.8335	   26.5009	    0.9004	
 -360.0000	6.340E-12	2.631E+9	   19.9318	   20.8335	   26.4858	    0.8925	
 -365.0000	6.346E-12	2.868E+9	   19.8983	   20.8187	   26.4949	    0.8847	
 -370.0000	6.338E-12	2.561E+9	   19.8752	   20.8142	   26.4984	    0.8827	
 -375.0000	6.342E-12	2.988E+9	   19.8752	   20.8142	   26.4984	    0.8827	
 -380.0000	6.339E-12	2.670E+9	   19.8983	   20.8171	   26.4911	    0.8814	
 -385.0000	6.337E-12	2.434E+9	   19.9369	   20.8285	   26.4911	    0.8911	
 -390.0000	6.341E-12	2.804E+9	   19.9369	   20.8285	   26.4911	    0.8911	
 -395.0000	6.341E-12	2.506E+9	   20.0605	   20.8314	   26.4870	    0.8914	
 -400.0000	6.339E-12	2.763E+9	   20.1145	   20.8269	   26.4753	    0.8814	
 -410.0000	6.337E-12	2.853E+9	   20.1145	   20.8269	   26.4753	    0.8814	
 -420.0000	6.336E-12	2.701E+9	   20.1660	   20.8250	   26.4728	    0.8785	
 -430.0000	6.342E-12	2.790E+9	   20.1660	   20.8344	   26.4744	    0.8874	
 -440.0000	6.338E-12	2.770E+9	   20.1326	   20.8338	   26.4722	    0.8856	
 -450.0000	6.339E-12	2.771E+9	   20.0888	   20.8302	   26.4586	    0.8754	
 -460.0000	6.337E-12	2.465E+9	   20.0502	   20.8292	   26.4579	    0.8743	
 -470.0000	6.337E-12	2.485E+9	   20.0013	   20.8285	   26.4567	    0.8730	
 -480.0000	6.339E-12	2.905E+9	   19.9421	   20.8285	   26.4573	    0.8734	
 -490.0000	6.342E-12	2.922E+9	   19.9035	   20.8168	   26.4576	    0.8635	
 -500.0000	6.337E-12	2.959E+9	   19.8932	   20.8257	   26.4617	    0.8733	
 -510.0000	6.340E-12	3.021E+9	   19.9009	   20.8270	   26.4557	    0.8713	
 -520.0000	6.338E-12	2.513E+9	   19.9215	   20.8167	   26.4526	    0.8609	
 -530.0000	6.338E-12	2.336E+9	   19.9781	   20.8199	   26.4557	    0.8652	
 -540.0000	6.338E-12	3.062E+9	   20.0476	   20.8199	   26.4633	    0.8692	
 -550.0000	6.335E-12	2.536E+9	   20.1068	   20.8215	   26.4466	    0.8618	
 -560.0000	6.335E-12	2.413E+9	   20.1454	   20.8201	   26.4488	    0.8617	
 -570.0000	6.339E-12	3.051E+9	   20.1789	   20.8236	   26.4522	    0.8665	
 -580.0000	6.339E-12	2.802E+9	   20.1815	   20.8262	   26.4516	    0.8684	
 -590.0000	6.339E-12	2.619E+9	   20.1531	   20.8209	   26.4478	    0.8619	
 -600.0000	6.336E-12	2.928E+9	   20.1094	   20.8131	   26.4396	    0.8510	
