GCD Test
Bias: 5000.000000
iV_36696_039_PSS_HM_XX_DIODEQUARTER
Date/Time: 8/17/2021 4:51:45 PM
Sensor Name: 36696_039_PSS_HM_XX_DIODEQUARTER
Type: P
Annealing Status: Unirrad
Environment: -20C
Tester: Eric Spencer

Time Delay per Ramp Step (s): 0.500

CV Time Delay per Measurement (s) :0.500

AC Voltage (V): 0.500

Current Number of measurements per voltage: 1.000

IV Time Delay per Measurement (s) :0.000


BiasVoltage	Total Current_Avg	Total Current_0	Bias Current_Avg	Bias Current_0	Temperature	Air_Temp	Humidity	Dewpoint	
   -5.0000	2.3000E-11	2.3000E-11	-3.203249E-11	-3.203249E-11	   20.0425	   21.2192	    7.7498	  -14.7210	
  -10.0000	-8.4000E-11	-8.4000E-11	-3.292150E-11	-3.292150E-11	   20.0039	   21.2172	    7.7435	  -14.7324	
  -15.0000	6.0000E-11	6.0000E-11	-3.347233E-11	-3.347233E-11	   19.9833	   21.2106	    7.7375	  -14.7467	
  -20.0000	7.1000E-11	7.1000E-11	-3.559663E-11	-3.559663E-11	   19.9627	   21.2050	    7.7381	  -14.7498	
  -25.0000	-2.7700E-10	-2.7700E-10	-3.717643E-11	-3.717643E-11	   19.9472	   21.2050	    7.7429	  -14.7498	
  -30.0000	-2.1000E-10	-2.1000E-10	-4.012882E-11	-4.012882E-11	   19.9472	   21.2058	    7.7429	  -14.7419	
  -35.0000	-2.4300E-10	-2.4300E-10	-4.564919E-11	-4.564919E-11	   19.9421	   21.2122	    7.7296	  -14.7579	
  -40.0000	-2.6600E-10	-2.6600E-10	-5.000984E-11	-5.000984E-11	   19.9472	   21.2169	    7.7381	  -14.7411	
  -45.0000	-1.0500E-10	-1.0500E-10	-5.304984E-11	-5.304984E-11	   19.9678	   21.2169	    7.7268	  -14.7411	
  -50.0000	-9.1000E-11	-9.1000E-11	-5.512667E-11	-5.512667E-11	   19.9678	   21.2111	    7.7268	  -14.7631	
  -55.0000	-9.4000E-11	-9.4000E-11	-5.686577E-11	-5.686577E-11	   20.0064	   21.2111	    7.7312	  -14.7631	
  -60.0000	-2.9000E-10	-2.9000E-10	-5.752803E-11	-5.752803E-11	   20.0064	   21.2171	    7.7312	  -14.7518	
  -65.0000	-2.0600E-10	-2.0600E-10	-5.783219E-11	-5.783219E-11	   20.0347	   21.2069	    7.7230	  -14.7722	
  -70.0000	-3.7700E-10	-3.7700E-10	-5.799312E-11	-5.799312E-11	   20.0656	   21.2069	    7.7324	  -14.7722	
  -75.0000	-4.8000E-10	-4.8000E-10	-5.846510E-11	-5.846510E-11	   20.0656	   21.2069	    7.7324	  -14.7574	
  -80.0000	-4.2000E-10	-4.2000E-10	-5.907687E-11	-5.907687E-11	   20.0862	   21.2069	    7.7268	  -14.7574	
  -85.0000	-1.8100E-10	-1.8100E-10	-5.903020E-11	-5.903020E-11	   20.0862	   21.2140	    7.7268	  -14.7610	
  -90.0000	-5.3100E-10	-5.3100E-10	-5.935186E-11	-5.935186E-11	   20.0837	   21.2140	    7.7331	  -14.7610	
  -95.0000	-5.5500E-10	-5.5500E-10	-5.919461E-11	-5.919461E-11	   20.0837	   21.2155	    7.7331	  -14.7500	
 -100.0000	-4.6200E-10	-4.6200E-10	-5.940991E-11	-5.940991E-11	   20.0656	   21.2151	    7.7331	  -14.7503	
 -105.0000	-2.5100E-10	-2.5100E-10	-5.916691E-11	-5.916691E-11	   20.0373	   21.2151	    7.7252	  -14.7503	
 -110.0000	-3.0900E-10	-3.0900E-10	-5.926385E-11	-5.926385E-11	   20.0373	   21.2151	    7.7252	  -14.7627	
 -115.0000	-1.8300E-10	-1.8300E-10	-5.888230E-11	-5.888230E-11	   20.0116	   21.2141	    7.7230	  -14.7669	
 -120.0000	-2.0200E-10	-2.0200E-10	-5.979291E-11	-5.979291E-11	   19.9884	   21.2188	    7.7261	  -14.7584	
 -125.0000	-2.1800E-10	-2.1800E-10	-5.986073E-11	-5.986073E-11	   19.9575	   21.2188	    7.7306	  -14.7584	
 -130.0000	-5.2300E-10	-5.2300E-10	-6.002330E-11	-6.002330E-11	   19.9575	   21.2185	    7.7306	  -14.7517	
 -135.0000	-3.3300E-10	-3.3300E-10	-5.959491E-11	-5.959491E-11	   19.9369	   21.2185	    7.7328	  -14.7517	
 -140.0000	-2.6600E-10	-2.6600E-10	-5.993634E-11	-5.993634E-11	   19.9369	   21.2152	    7.7328	  -14.7507	
 -145.0000	-6.4200E-10	-6.4200E-10	-6.039791E-11	-6.039791E-11	   19.9344	   21.2122	    7.7245	  -14.7658	
 -150.0000	-5.1700E-10	-5.1700E-10	-6.029100E-11	-6.029100E-11	   19.9472	   21.2122	    7.7340	  -14.7658	
 -155.0000	-5.9400E-10	-5.9400E-10	-6.063117E-11	-6.063117E-11	   19.9472	   21.2160	    7.7340	  -14.7482	
 -160.0000	-3.9500E-10	-3.9500E-10	-6.099316E-11	-6.099316E-11	   19.9653	   21.2102	    7.7185	  -14.7767	
 -165.0000	-4.5100E-10	-4.5100E-10	-6.111418E-11	-6.111418E-11	   19.9884	   21.2114	    7.7258	  -14.7644	
 -170.0000	-7.1400E-10	-7.1400E-10	-6.140914E-11	-6.140914E-11	   20.0296	   21.2114	    7.7195	  -14.7644	
 -175.0000	-4.1600E-10	-4.1600E-10	-6.145985E-11	-6.145985E-11	   20.0296	   21.2140	    7.7195	  -14.7725	
 -180.0000	-5.8800E-10	-5.8800E-10	-6.218305E-11	-6.218305E-11	   20.0759	   21.2140	    7.7192	  -14.7725	
 -185.0000	-6.5800E-10	-6.5800E-10	-6.231730E-11	-6.231730E-11	   20.0759	   21.2094	    7.7192	  -14.7763	
 -190.0000	-3.9200E-10	-3.9200E-10	-6.255565E-11	-6.255565E-11	   20.1068	   21.2094	    7.7223	  -14.7763	
 -195.0000	-6.8500E-10	-6.8500E-10	-6.257234E-11	-6.257234E-11	   20.1068	   21.2093	    7.7223	  -14.7714	
 -200.0000	-7.8600E-10	-7.8600E-10	-6.168455E-11	-6.168455E-11	   20.1120	   21.2159	    7.7211	  -14.7686	
 -205.0000	-5.1600E-10	-5.1600E-10	-6.262143E-11	-6.262143E-11	   20.0991	   21.2159	    7.7173	  -14.7686	
 -210.0000	-4.0000E-10	-4.0000E-10	-6.212621E-11	-6.212621E-11	   20.0991	   21.2159	    7.7173	  -14.7745	
 -215.0000	-4.0400E-10	-4.0400E-10	-6.179701E-11	-6.179701E-11	   20.0785	   21.2226	    7.7283	  -14.7522	
 -220.0000	-4.9700E-10	-4.9700E-10	-6.199378E-11	-6.199378E-11	   20.0553	   21.2261	    7.7198	  -14.7629	
 -225.0000	-6.0600E-10	-6.0600E-10	-6.191762E-11	-6.191762E-11	   20.0193	   21.2261	    7.7283	  -14.7629	
 -230.0000	-4.6200E-10	-4.6200E-10	-6.170554E-11	-6.170554E-11	   20.0193	   21.2252	    7.7283	  -14.7502	
 -235.0000	-4.7500E-10	-4.7500E-10	-6.248046E-11	-6.248046E-11	   19.9884	   21.2099	    7.7211	  -14.7729	
 -240.0000	-8.6300E-10	-8.6300E-10	-6.176157E-11	-6.176157E-11	   19.9601	   21.2099	    7.7245	  -14.7729	
 -245.0000	-5.6600E-10	-5.6600E-10	-6.283046E-11	-6.283046E-11	   19.9601	   21.2099	    7.7245	  -14.7675	
 -250.0000	-5.7000E-10	-5.7000E-10	-6.216898E-11	-6.216898E-11	   19.9472	   21.2090	    7.7160	  -14.7816	
 -255.0000	-5.8900E-10	-5.8900E-10	-6.262224E-11	-6.262224E-11	   19.9447	   21.2105	    7.7185	  -14.7765	
 -260.0000	-8.2100E-10	-8.2100E-10	-6.298710E-11	-6.298710E-11	   19.9550	   21.2105	    7.7185	  -14.7765	
 -265.0000	-8.2200E-10	-8.2200E-10	-6.407612E-11	-6.407612E-11	   19.9550	   21.2080	    7.7185	  -14.7783	
 -270.0000	-5.9500E-10	-5.9500E-10	-6.448581E-11	-6.448581E-11	   19.9884	   21.2080	    7.7185	  -14.7783	
 -275.0000	-9.4700E-10	-9.4700E-10	-6.475695E-11	-6.475695E-11	   19.9884	   21.2063	    7.7185	  -14.7796	
 -280.0000	-8.6200E-10	-8.6200E-10	-6.509796E-11	-6.509796E-11	   20.0219	   21.2076	    7.7261	  -14.7667	
 -285.0000	-7.8700E-10	-7.8700E-10	-6.543448E-11	-6.543448E-11	   20.0579	   21.2076	    7.7271	  -14.7667	
 -290.0000	-8.6100E-10	-8.6100E-10	-6.630820E-11	-6.630820E-11	   20.0579	   21.2059	    7.7271	  -14.7665	
 -295.0000	-6.2500E-10	-6.2500E-10	-6.647299E-11	-6.647299E-11	   20.0811	   21.2023	    7.7312	  -14.7628	
 -300.0000	-8.7800E-10	-8.7800E-10	-6.728214E-11	-6.728214E-11	   20.0939	   21.2121	    7.7271	  -14.7619	
 -305.0000	-6.1200E-10	-6.1200E-10	-6.709373E-11	-6.709373E-11	   20.0939	   21.2121	    7.7299	  -14.7619	
 -310.0000	-9.4400E-10	-9.4400E-10	-6.729947E-11	-6.729947E-11	   20.0939	   21.2169	    7.7299	  -14.7539	
 -315.0000	-8.4400E-10	-8.4400E-10	-6.729823E-11	-6.729823E-11	   20.0785	   21.2169	    7.7211	  -14.7678	
 -320.0000	-1.0160E-9	-1.0160E-9	-6.750379E-11	-6.750379E-11	   20.0502	   21.2169	    7.7220	  -14.7678	
 -325.0000	-9.3000E-10	-9.3000E-10	-6.775251E-11	-6.775251E-11	   20.0502	   21.2169	    7.7220	  -14.7663	
 -330.0000	-6.3500E-10	-6.3500E-10	-6.800816E-11	-6.800816E-11	   20.0245	   21.2187	    7.7220	  -14.7649	
 -335.0000	-8.7800E-10	-8.7800E-10	-6.821925E-11	-6.821925E-11	   20.0013	   21.2149	    7.7154	  -14.7782	
 -340.0000	-1.0370E-9	-1.0370E-9	-6.797844E-11	-6.797844E-11	   19.9704	   21.2149	    7.7163	  -14.7782	
 -345.0000	-6.9500E-10	-6.9500E-10	-6.830660E-11	-6.830660E-11	   19.9704	   21.2168	    7.7163	  -14.7753	
 -350.0000	-8.6600E-10	-8.6600E-10	-6.851154E-11	-6.851154E-11	   19.9472	   21.2076	    7.7157	  -14.7831	
 -355.0000	-1.0890E-9	-1.0890E-9	-6.886132E-11	-6.886132E-11	   19.9472	   21.2076	    7.7157	  -14.7831	
 -360.0000	-9.4200E-10	-9.4200E-10	-6.939466E-11	-6.939466E-11	   19.9421	   21.2120	    7.7195	  -14.7739	
 -365.0000	-9.2200E-10	-9.2200E-10	-6.963320E-11	-6.963320E-11	   19.9472	   21.2120	    7.7144	  -14.7739	
 -370.0000	-1.0410E-9	-1.0410E-9	-6.997481E-11	-6.997481E-11	   19.9472	   21.2120	    7.7144	  -14.7819	
 -375.0000	-1.1480E-9	-1.1480E-9	-7.066294E-11	-7.066294E-11	   19.9627	   21.2077	    7.7173	  -14.7805	
 -380.0000	-8.3300E-10	-8.3300E-10	-7.056337E-11	-7.056337E-11	   19.9833	   21.2047	    7.7147	  -14.7868	
 -385.0000	-1.1750E-9	-1.1750E-9	-7.099969E-11	-7.099969E-11	   20.0193	   21.2047	    7.7242	  -14.7868	
 -390.0000	-8.5800E-10	-8.5800E-10	-7.127349E-11	-7.127349E-11	   20.0193	   21.2086	    7.7242	  -14.7690	
 -395.0000	-1.0560E-9	-1.0560E-9	-7.179720E-11	-7.179720E-11	   20.0528	   21.2006	    7.7151	  -14.7893	
 -400.0000	-1.1130E-9	-1.1130E-9	-7.224170E-11	-7.224170E-11	   20.0837	   21.2006	    7.7173	  -14.7893	
 -410.0000	-8.6300E-10	-8.6300E-10	-7.228369E-11	-7.228369E-11	   20.0837	   21.2092	    7.7173	  -14.7795	
 -420.0000	-9.9900E-10	-9.9900E-10	-7.280047E-11	-7.280047E-11	   20.0965	   21.2176	    7.7103	  -14.7841	
 -430.0000	-1.1380E-9	-1.1380E-9	-7.313804E-11	-7.313804E-11	   20.0991	   21.2168	    7.7132	  -14.7803	
 -440.0000	-1.3900E-9	-1.3900E-9	-7.295735E-11	-7.295735E-11	   20.0837	   21.2168	    7.7135	  -14.7803	
 -450.0000	-1.3310E-9	-1.3310E-9	-7.315129E-11	-7.315129E-11	   20.0837	   21.2176	    7.7135	  -14.7792	
 -460.0000	-1.3610E-9	-1.3610E-9	-7.362023E-11	-7.362023E-11	   20.0579	   21.2136	    7.7062	  -14.7936	
 -470.0000	-1.4390E-9	-1.4390E-9	-7.321748E-11	-7.321748E-11	   20.0245	   21.2136	    7.6929	  -14.7936	
 -480.0000	-1.2770E-9	-1.2770E-9	-7.344726E-11	-7.344726E-11	   20.0245	   21.2136	    7.6929	  -14.8144	
 -490.0000	-1.4340E-9	-1.4340E-9	-7.414825E-11	-7.414825E-11	   19.9987	   21.2114	    7.6986	  -14.8071	
 -500.0000	-1.4900E-9	-1.4900E-9	-7.434993E-11	-7.434993E-11	   19.9781	   21.2081	    7.7097	  -14.7922	
 -510.0000	-1.4630E-9	-1.4630E-9	-7.469991E-11	-7.469991E-11	   19.9524	   21.2081	    7.6951	  -14.7922	
 -520.0000	-1.6020E-9	-1.6020E-9	-7.476775E-11	-7.476775E-11	   19.9524	   21.2154	    7.6951	  -14.8096	
 -530.0000	-1.4280E-9	-1.4280E-9	-7.499588E-11	-7.499588E-11	   19.9447	   21.2041	    7.6879	  -14.8294	
 -540.0000	-1.5890E-9	-1.5890E-9	-7.561785E-11	-7.561785E-11	   19.9472	   21.2041	    7.6888	  -14.8294	
 -550.0000	-1.6120E-9	-1.6120E-9	-7.615359E-11	-7.615359E-11	   19.9472	   21.2113	    7.6888	  -14.8226	
 -560.0000	-1.6920E-9	-1.6920E-9	-7.630900E-11	-7.630900E-11	   19.9704	   21.2113	    7.6863	  -14.8226	
 -570.0000	-1.6780E-9	-1.6780E-9	-7.703504E-11	-7.703504E-11	   19.9704	   21.2059	    7.6863	  -14.8306	
 -580.0000	-1.6850E-9	-1.6850E-9	-7.794011E-11	-7.794011E-11	   20.0116	   21.2059	    7.6967	  -14.8306	
 -590.0000	-1.7700E-9	-1.7700E-9	-7.796907E-11	-7.796907E-11	   20.0116	   21.2118	    7.6967	  -14.8098	
 -600.0000	-1.7410E-9	-1.7410E-9	-7.856490E-11	-7.856490E-11	   20.0399	   21.2088	    7.6939	  -14.8165	
 -610.0000	-1.7530E-9	-1.7530E-9	-7.857612E-11	-7.857612E-11	   20.0759	   21.2088	    7.6844	  -14.8165	
 -620.0000	-1.8270E-9	-1.8270E-9	-7.879284E-11	-7.879284E-11	   20.0759	   21.2094	    7.6844	  -14.8310	
 -630.0000	-1.8270E-9	-1.8270E-9	-7.933714E-11	-7.933714E-11	   20.0939	   21.2127	    7.6822	  -14.8320	
 -640.0000	-1.6000E-9	-1.6000E-9	-7.896704E-11	-7.896704E-11	   20.0965	   21.2127	    7.6869	  -14.8320	
 -650.0000	-1.7130E-9	-1.7130E-9	-7.926813E-11	-7.926813E-11	   20.0965	   21.2127	    7.6869	  -14.8246	
 -660.0000	-1.9040E-9	-1.9040E-9	-7.909434E-11	-7.909434E-11	   20.0837	   21.2235	    7.7008	  -14.7947	
 -670.0000	-1.9190E-9	-1.9190E-9	-7.938361E-11	-7.938361E-11	   20.0682	   21.2170	    7.7037	  -14.7950	
 -680.0000	-2.0200E-9	-2.0200E-9	-7.923207E-11	-7.923207E-11	   20.0322	   21.2170	    7.7002	  -14.7950	
 -690.0000	-2.0050E-9	-2.0050E-9	-7.950646E-11	-7.950646E-11	   20.0322	   21.2158	    7.7002	  -14.8013	
 -700.0000	-2.0170E-9	-2.0170E-9	-7.944169E-11	-7.944169E-11	   20.0013	   21.2140	    7.7078	  -14.7908	
 -710.0000	-1.8490E-9	-1.8490E-9	-8.002612E-11	-8.002612E-11	   19.9678	   21.2140	    7.6951	  -14.7908	
 -720.0000	-1.9830E-9	-1.9830E-9	-8.008073E-11	-8.008073E-11	   19.9678	   21.2081	    7.6951	  -14.8150	
 -730.0000	-2.0920E-9	-2.0920E-9	-8.035553E-11	-8.035553E-11	   19.9395	   21.2081	    7.6920	  -14.8150	
 -740.0000	-2.0580E-9	-2.0580E-9	-8.135331E-11	-8.135331E-11	   19.9395	   21.2082	    7.6920	  -14.8200	
 -750.0000	-2.0670E-9	-2.0670E-9	-8.174425E-11	-8.174425E-11	   19.9344	   21.2030	    7.6967	  -14.8163	
 -760.0000	-2.2040E-9	-2.2040E-9	-8.214249E-11	-8.214249E-11	   19.9447	   21.2030	    7.6853	  -14.8163	
 -770.0000	-2.1300E-9	-2.1300E-9	-8.353589E-11	-8.353589E-11	   19.9447	   21.2019	    7.6853	  -14.8350	
 -780.0000	-1.9660E-9	-1.9660E-9	-8.394881E-11	-8.394881E-11	   19.9627	   21.2115	    7.6803	  -14.8359	
 -790.0000	-1.9660E-9	-1.9660E-9	-8.477977E-11	-8.477977E-11	   19.9858	   21.2146	    7.6793	  -14.8351	
 -800.0000	-2.0010E-9	-2.0010E-9	-8.554164E-11	-8.554164E-11	   20.0296	   21.2146	    7.6888	  -14.8351	
 -810.0000	-2.2820E-9	-2.2820E-9	-8.635243E-11	-8.635243E-11	   20.0296	   21.2051	    7.6888	  -14.8272	
 -820.0000	-2.3970E-9	-2.3970E-9	-8.671077E-11	-8.671077E-11	   20.0631	   21.2082	    7.6898	  -14.8234	
 -830.0000	-2.1120E-9	-2.1120E-9	-8.759589E-11	-8.759589E-11	   20.0965	   21.2082	    7.6850	  -14.8234	
 -840.0000	-2.0410E-9	-2.0410E-9	-8.770977E-11	-8.770977E-11	   20.0965	   21.2082	    7.6850	  -14.8309	
 -850.0000	-2.2750E-9	-2.2750E-9	-8.869552E-11	-8.869552E-11	   20.1094	   21.2093	    7.6907	  -14.8211	
 -860.0000	-2.3000E-9	-2.3000E-9	-8.907257E-11	-8.907257E-11	   20.1094	   21.2093	    7.6809	  -14.8365	
 -870.0000	-2.3850E-9	-2.3850E-9	-8.913883E-11	-8.913883E-11	   20.0991	   21.1998	    7.6945	  -14.8222	
 -880.0000	-2.0980E-9	-2.0980E-9	-9.037122E-11	-9.037122E-11	   20.0708	   21.1998	    7.6866	  -14.8222	
 -890.0000	-2.2770E-9	-2.2770E-9	-9.070793E-11	-9.070793E-11	   20.0708	   21.2086	    7.6866	  -14.8281	
 -900.0000	-2.1760E-9	-2.1760E-9	-9.171104E-11	-9.171104E-11	   20.0296	   21.2086	    7.6812	  -14.8281	
 -910.0000	-2.4870E-9	-2.4870E-9	-9.243238E-11	-9.243238E-11	   20.0296	   21.2067	    7.6812	  -14.8380	
 -920.0000	-2.5470E-9	-2.5470E-9	-9.327149E-11	-9.327149E-11	   19.9936	   21.2076	    7.6777	  -14.8428	
 -930.0000	-2.4670E-9	-2.4670E-9	-9.425910E-11	-9.425910E-11	   19.9627	   21.2076	    7.6752	  -14.8428	
 -940.0000	-2.2750E-9	-2.2750E-9	-9.562579E-11	-9.562579E-11	   19.9627	   21.2048	    7.6752	  -14.8489	
 -950.0000	-2.5360E-9	-2.5360E-9	-9.691915E-11	-9.691915E-11	   19.9421	   21.2048	    7.6803	  -14.8489	
 -960.0000	-2.4920E-9	-2.4920E-9	-9.846552E-11	-9.846552E-11	   19.9421	   21.2021	    7.6803	  -14.8429	
 -970.0000	-2.3120E-9	-2.3120E-9	-1.003906E-10	-1.003906E-10	   19.9421	   21.1989	    7.6774	  -14.8497	
 -980.0000	-2.4040E-9	-2.4040E-9	-1.025496E-10	-1.025496E-10	   19.9575	   21.1989	    7.6834	  -14.8497	
 -990.0000	-2.4830E-9	-2.4830E-9	-1.041242E-10	-1.041242E-10	   19.9575	   21.1965	    7.6834	  -14.8421	
-1000.0000	-2.4520E-9	-2.4520E-9	-1.064295E-10	-1.064295E-10	   20.0013	   21.1965	    7.6736	  -14.8421	
