GCD Test
Bias: 5000.000000
CV_34252_018_PSS_HM_XX_DIODEHALFPSTOP
Date/Time: 4/27/2021 11:48:20 AM
Sensor Name: DIODEHALFPSTOP
Type: P
Annealing Status: Unirradiated
Environment: RT
Tester: Andrew Kent

Time Delay per Ramp Step (s): 0.500

CV Time Delay per Measurement (s) :0.500

AC Voltage (V): 0.500

Current Number of measurements per voltage: 1.000

IV Time Delay per Measurement (s) :0.000


BiasVoltage	LCR_Cp_freqNaN	LCR_Rp_freqNaN	Temperature	Air_Temp	Humidity	Dewpoint	
   -5.0000	2.274E-11	6.767E+8	   22.7642	   22.9756	   19.2451	   -1.6937	
  -10.0000	1.746E-11	4.801E+8	   22.7616	   22.9747	   19.2407	   -1.6975	
  -15.0000	1.506E-11	5.201E+8	   22.7616	   22.9747	   19.2407	   -1.6975	
  -20.0000	1.361E-11	5.412E+8	   22.7616	   22.9786	   19.2388	   -1.6957	
  -25.0000	1.268E-11	5.578E+8	   22.7616	   22.9777	   19.2315	   -1.7016	
  -30.0000	1.203E-11	5.502E+8	   22.7616	   22.9777	   19.2315	   -1.7016	
  -35.0000	1.150E-11	5.454E+8	   22.7616	   22.9765	   19.2483	   -1.6907	
  -40.0000	1.109E-11	5.409E+8	   22.7616	   22.9776	   19.2369	   -1.6978	
  -45.0000	1.073E-11	5.412E+8	   22.7642	   22.9794	   19.2312	   -1.7004	
  -50.0000	1.043E-11	5.434E+8	   22.7616	   22.9791	   19.2397	   -1.6946	
  -55.0000	1.018E-11	5.453E+8	   22.7642	   22.9764	   19.2432	   -1.6943	
  -60.0000	9.954E-12	5.518E+8	   22.7616	   22.9808	   19.2454	   -1.6892	
  -65.0000	9.752E-12	5.564E+8	   22.7616	   22.9786	   19.2581	   -1.6821	
  -70.0000	9.582E-12	5.543E+8	   22.7642	   22.9794	   19.2498	   -1.6872	
  -75.0000	9.417E-12	5.735E+8	   22.7616	   22.9826	   19.2638	   -1.6748	
  -80.0000	9.277E-12	5.628E+8	   22.7642	   22.9850	   19.2454	   -1.6857	
  -85.0000	9.141E-12	5.947E+8	   22.7616	   22.9813	   19.2600	   -1.6786	
  -90.0000	9.018E-12	5.797E+8	   22.7642	   22.9812	   19.2505	   -1.6853	
  -95.0000	8.910E-12	5.866E+8	   22.7642	   22.9846	   19.2540	   -1.6800	
 -100.0000	8.794E-12	6.233E+8	   22.7616	   22.9850	   19.2596	   -1.6757	
 -105.0000	8.686E-12	6.473E+8	   22.7616	   22.9826	   19.2476	   -1.6861	
 -110.0000	8.594E-12	6.806E+8	   22.7616	   22.9858	   19.2385	   -1.6900	
 -115.0000	8.503E-12	7.074E+8	   22.7616	   22.9858	   19.2385	   -1.6900	
 -120.0000	8.422E-12	7.081E+8	   22.7616	   22.9815	   19.2454	   -1.6886	
 -125.0000	8.349E-12	7.151E+8	   22.7642	   22.9811	   19.2568	   -1.6809	
 -130.0000	8.279E-12	7.094E+8	   22.7642	   22.9885	   19.2454	   -1.6829	
 -135.0000	8.216E-12	7.243E+8	   22.7642	   22.9821	   19.2581	   -1.6792	
 -140.0000	8.153E-12	7.192E+8	   22.7642	   22.9848	   19.2413	   -1.6888	
 -145.0000	8.089E-12	7.316E+8	   22.7616	   22.9848	   19.2508	   -1.6821	
 -150.0000	8.034E-12	7.435E+8	   22.7642	   22.9858	   19.2559	   -1.6777	
 -155.0000	7.985E-12	7.398E+8	   22.7616	   22.9873	   19.2549	   -1.6771	
 -160.0000	7.930E-12	7.591E+8	   22.7642	   22.9898	   19.2612	   -1.6706	
 -165.0000	7.879E-12	7.608E+8	   22.7642	   22.9898	   19.2612	   -1.6706	
 -170.0000	7.834E-12	7.473E+8	   22.7616	   22.9869	   19.2653	   -1.6702	
 -175.0000	7.794E-12	7.563E+8	   22.7616	   22.9907	   19.2650	   -1.6673	
 -180.0000	7.746E-12	7.929E+8	   22.7642	   22.9839	   19.2600	   -1.6764	
 -185.0000	7.705E-12	7.830E+8	   22.7616	   22.9886	   19.2625	   -1.6708	
 -190.0000	7.673E-12	7.691E+8	   22.7642	   22.9910	   19.2521	   -1.6762	
 -195.0000	7.630E-12	7.730E+8	   22.7642	   22.9910	   19.2521	   -1.6762	
 -200.0000	7.593E-12	7.781E+8	   22.7616	   22.9945	   19.2641	   -1.6648	
 -205.0000	7.558E-12	7.931E+8	   22.7616	   22.9914	   19.2457	   -1.6803	
 -210.0000	7.523E-12	7.762E+8	   22.7616	   22.9934	   19.2321	   -1.6882	
 -215.0000	7.487E-12	7.932E+8	   22.7616	   22.9971	   19.2309	   -1.6861	
 -220.0000	7.459E-12	7.920E+8	   22.7616	   22.9926	   19.2514	   -1.6753	
 -225.0000	7.424E-12	8.082E+8	   22.7642	   22.9955	   19.2457	   -1.6769	
 -230.0000	7.398E-12	8.015E+8	   22.7642	   22.9955	   19.2460	   -1.6767	
 -235.0000	7.362E-12	8.341E+8	   22.7642	   22.9955	   19.2460	   -1.6767	
 -240.0000	7.335E-12	8.223E+8	   22.7616	   22.9949	   19.2423	   -1.6798	
 -245.0000	7.303E-12	8.169E+8	   22.7616	   22.9949	   19.2423	   -1.6798	
 -250.0000	7.274E-12	8.032E+8	   22.7616	   22.9962	   19.2451	   -1.6767	
 -255.0000	7.228E-12	8.227E+8	   22.7616	   22.9971	   19.2306	   -1.6863	
 -260.0000	7.178E-12	8.893E+8	   22.7616	   22.9940	   19.2318	   -1.6880	
 -265.0000	7.138E-12	1.068E+9	   22.7616	   22.9965	   19.2514	   -1.6721	
 -270.0000	7.109E-12	1.175E+9	   22.7616	   22.9974	   19.2511	   -1.6715	
 -275.0000	7.086E-12	1.212E+9	   22.7616	   23.0012	   19.2264	   -1.6858	
 -280.0000	7.059E-12	1.251E+9	   22.7616	   23.0018	   19.2331	   -1.6806	
 -285.0000	7.038E-12	1.262E+9	   22.7616	   22.9990	   19.2302	   -1.6850	
 -290.0000	7.013E-12	1.364E+9	   22.7616	   22.9979	   19.2369	   -1.6812	
 -295.0000	6.989E-12	1.336E+9	   22.7616	   22.9979	   19.2400	   -1.6789	
 -300.0000	6.972E-12	1.456E+9	   22.7616	   22.9989	   19.2315	   -1.6842	
 -305.0000	6.951E-12	1.468E+9	   22.7616	   22.9979	   19.2375	   -1.6807	
 -310.0000	6.940E-12	1.532E+9	   22.7616	   22.9979	   19.2375	   -1.6807	
 -315.0000	6.926E-12	1.537E+9	   22.7616	   23.0022	   19.2353	   -1.6788	
 -320.0000	6.918E-12	1.534E+9	   22.7616	   22.9986	   19.2429	   -1.6764	
 -325.0000	6.905E-12	1.572E+9	   22.7616	   22.9986	   19.2429	   -1.6764	
 -330.0000	6.904E-12	1.675E+9	   22.7616	   23.0018	   19.2410	   -1.6751	
 -335.0000	6.900E-12	1.703E+9	   22.7616	   23.0020	   19.2239	   -1.6869	
 -340.0000	6.891E-12	1.711E+9	   22.7616	   22.9991	   19.2217	   -1.6909	
 -345.0000	6.889E-12	1.687E+9	   22.7590	   23.0058	   19.2324	   -1.6778	
 -350.0000	6.879E-12	1.716E+9	   22.7616	   23.0064	   19.2217	   -1.6849	
 -355.0000	6.879E-12	1.769E+9	   22.7616	   23.0081	   19.2255	   -1.6809	
 -360.0000	6.875E-12	1.821E+9	   22.7616	   23.0051	   19.2198	   -1.6873	
 -365.0000	6.869E-12	1.852E+9	   22.7616	   23.0061	   19.2239	   -1.6836	
 -370.0000	6.866E-12	1.793E+9	   22.7616	   23.0084	   19.2356	   -1.6735	
 -375.0000	6.866E-12	1.904E+9	   22.7616	   23.0081	   19.2324	   -1.6759	
 -380.0000	6.864E-12	1.858E+9	   22.7616	   23.0053	   19.2328	   -1.6780	
 -385.0000	6.859E-12	1.866E+9	   22.7616	   23.0070	   19.2220	   -1.6842	
 -390.0000	6.857E-12	1.925E+9	   22.7616	   23.0079	   19.2147	   -1.6886	
 -395.0000	6.854E-12	1.882E+9	   22.7616	   23.0076	   19.2299	   -1.6782	
 -400.0000	6.852E-12	2.004E+9	   22.7616	   23.0098	   19.2217	   -1.6821	
 -410.0000	6.849E-12	1.996E+9	   22.7616	   23.0044	   19.2106	   -1.6944	
 -420.0000	6.845E-12	2.007E+9	   22.7616	   23.0044	   19.2185	   -1.6888	
 -430.0000	6.842E-12	1.967E+9	   22.7616	   23.0044	   19.2185	   -1.6888	
 -440.0000	6.840E-12	1.954E+9	   22.7616	   23.0084	   19.2103	   -1.6913	
 -450.0000	6.837E-12	1.977E+9	   22.7616	   23.0122	   19.2132	   -1.6862	
 -460.0000	6.833E-12	2.047E+9	   22.7616	   23.0112	   19.2182	   -1.6834	
 -470.0000	6.835E-12	2.053E+9	   22.7590	   23.0109	   19.2163	   -1.6850	
 -480.0000	6.829E-12	2.094E+9	   22.7616	   23.0083	   19.2125	   -1.6898	
 -490.0000	6.830E-12	2.101E+9	   22.7616	   23.0095	   19.2132	   -1.6884	
 -500.0000	6.829E-12	2.161E+9	   22.7616	   23.0133	   19.2071	   -1.6895	
 -510.0000	6.826E-12	2.126E+9	   22.7616	   23.0156	   19.2116	   -1.6845	
 -520.0000	6.826E-12	2.170E+9	   22.7616	   23.0167	   19.2223	   -1.6760	
 -530.0000	6.826E-12	2.083E+9	   22.7616	   23.0165	   19.2097	   -1.6851	
 -540.0000	6.820E-12	2.064E+9	   22.7616	   23.0165	   19.2094	   -1.6853	
 -550.0000	6.823E-12	2.128E+9	   22.7616	   23.0166	   19.2081	   -1.6861	
 -560.0000	6.821E-12	2.115E+9	   22.7616	   23.0163	   19.2078	   -1.6866	
 -570.0000	6.822E-12	2.136E+9	   22.7616	   23.0116	   19.2081	   -1.6902	
 -580.0000	6.822E-12	2.215E+9	   22.7616	   23.0174	   19.2034	   -1.6888	
 -590.0000	6.818E-12	2.193E+9	   22.7616	   23.0172	   19.1958	   -1.6944	
 -600.0000	6.818E-12	2.073E+9	   22.7616	   23.0193	   19.1996	   -1.6899	
