GCD Test
Bias: 5000.000000
IV_38694_046_2-S_HM_XX_DIODEHALF
Date/Time: 2/10/2022 3:09:48 PM
Sensor Name: DIODEHALF
Type: P
Annealing Status: Not Irradiated
Environment: 20C
Tester: Andrew Kent

Time Delay per Ramp Step (s): 0.500

CV Time Delay per Measurement (s) :0.500

AC Voltage (V): 0.500

Current Number of measurements per voltage: 1.000

IV Time Delay per Measurement (s) :0.000


BiasVoltage	Total Current_Avg	Total Current_0	Bias Current_Avg	Bias Current_0	Temperature	Air_Temp	Humidity	Dewpoint	
  -10.0000	6.2500E-10	6.2500E-10	-8.238769E-11	-8.238769E-11	   20.0270	   21.4783	   27.1056	    1.7581	
  -20.0000	5.5200E-10	5.5200E-10	-8.674031E-11	-8.674031E-11	   20.0245	   21.4793	   27.1031	    1.7653	
  -30.0000	4.1200E-10	4.1200E-10	-9.205465E-11	-9.205465E-11	   20.0245	   21.4798	   27.1031	    1.7645	
  -40.0000	2.0300E-10	2.0300E-10	-9.820932E-11	-9.820932E-11	   20.0142	   21.4762	   27.1040	    1.7619	
  -50.0000	1.4800E-10	1.4800E-10	-1.074979E-10	-1.074979E-10	   20.0039	   21.4774	   27.1044	    1.7630	
  -60.0000	1.3600E-10	1.3600E-10	-1.140576E-10	-1.140576E-10	   19.9936	   21.4729	   27.1047	    1.7594	
  -70.0000	-1.0000E-12	-1.0000E-12	-1.165554E-10	-1.165554E-10	   19.9884	   21.4729	   27.1097	    1.7620	
  -80.0000	-6.4000E-11	-6.4000E-11	-1.210879E-10	-1.210879E-10	   19.9807	   21.4781	   27.0952	    1.7589	
  -90.0000	-9.8000E-11	-9.8000E-11	-1.236551E-10	-1.236551E-10	   19.9755	   21.4796	   27.1101	    1.7679	
 -100.0000	-5.6000E-11	-5.6000E-11	-1.249593E-10	-1.249593E-10	   19.9781	   21.4784	   27.0965	    1.7598	
 -110.0000	-1.2300E-10	-1.2300E-10	-1.267630E-10	-1.267630E-10	   19.9807	   21.4754	   27.1003	    1.7592	
 -120.0000	-1.3700E-10	-1.3700E-10	-1.286844E-10	-1.286844E-10	   19.9884	   21.4724	   27.1088	    1.7610	
 -130.0000	-2.2500E-10	-2.2500E-10	-1.300459E-10	-1.300459E-10	   19.9961	   21.4689	   27.1132	    1.7603	
 -140.0000	-2.2700E-10	-2.2700E-10	-1.315784E-10	-1.315784E-10	   20.0064	   21.4729	   27.1072	    1.7607	
 -150.0000	-2.3500E-10	-2.3500E-10	-1.326414E-10	-1.326414E-10	   20.0193	   21.4749	   27.1094	    1.7635	
 -160.0000	-2.4700E-10	-2.4700E-10	-1.351293E-10	-1.351293E-10	   20.0245	   21.4732	   27.1012	    1.7578	
 -170.0000	-3.1400E-10	-3.1400E-10	-1.370229E-10	-1.370229E-10	   20.0322	   21.4703	   27.1040	    1.7568	
 -180.0000	-3.3300E-10	-3.3300E-10	-1.404382E-10	-1.404382E-10	   20.0322	   21.4716	   27.0870	    1.7492	
 -190.0000	-3.4600E-10	-3.4600E-10	-1.444834E-10	-1.444834E-10	   20.0296	   21.4679	   27.0889	    1.7470	
 -200.0000	-4.3700E-10	-4.3700E-10	-1.493996E-10	-1.493996E-10	   20.0193	   21.4699	   27.0882	    1.7483	
 -210.0000	-4.5700E-10	-4.5700E-10	-1.536347E-10	-1.536347E-10	   20.0193	   21.4699	   27.0882	    1.7483	
 -220.0000	-4.9600E-10	-4.9600E-10	-1.580248E-10	-1.580248E-10	   20.0039	   21.4714	   27.0844	    1.7477	
 -230.0000	-4.9800E-10	-4.9800E-10	-1.612881E-10	-1.612881E-10	   19.9858	   21.4714	   27.0734	    1.7477	
 -240.0000	-4.9600E-10	-4.9600E-10	-1.640340E-10	-1.640340E-10	   19.9781	   21.4714	   27.0914	    1.7420	
 -250.0000	-5.3300E-10	-5.3300E-10	-1.661893E-10	-1.661893E-10	   19.9781	   21.4733	   27.0914	    1.7529	
 -260.0000	-6.6200E-10	-6.6200E-10	-1.681869E-10	-1.681869E-10	   19.9755	   21.4672	   27.0803	    1.7419	
 -270.0000	-6.3900E-10	-6.3900E-10	-1.704044E-10	-1.704044E-10	   19.9755	   21.4635	   27.0835	    1.7404	
 -280.0000	-6.0700E-10	-6.0700E-10	-1.730449E-10	-1.730449E-10	   19.9807	   21.4632	   27.0895	    1.7433	
 -290.0000	-6.3700E-10	-6.3700E-10	-1.746463E-10	-1.746463E-10	   19.9910	   21.4659	   27.0832	    1.7423	
 -300.0000	-7.0800E-10	-7.0800E-10	-1.762353E-10	-1.762353E-10	   20.0039	   21.4700	   27.0746	    1.7414	
 -310.0000	-7.1600E-10	-7.1600E-10	-1.783647E-10	-1.783647E-10	   20.0167	   21.4653	   27.0819	    1.7412	
 -320.0000	-7.3000E-10	-7.3000E-10	-1.788136E-10	-1.788136E-10	   20.0270	   21.4628	   27.0794	    1.7377	
 -330.0000	-7.6200E-10	-7.6200E-10	-1.801836E-10	-1.801836E-10	   20.0373	   21.4703	   27.0832	    1.7461	
 -340.0000	-7.5600E-10	-7.5600E-10	-1.816325E-10	-1.816325E-10	   20.0373	   21.4688	   27.0835	    1.7450	
 -350.0000	-7.3800E-10	-7.3800E-10	-1.819610E-10	-1.819610E-10	   20.0399	   21.4727	   27.0879	    1.7505	
 -360.0000	-7.8900E-10	-7.8900E-10	-1.834280E-10	-1.834280E-10	   20.0347	   21.4671	   27.0794	    1.7414	
 -370.0000	-9.1200E-10	-9.1200E-10	-1.840106E-10	-1.840106E-10	   20.0245	   21.4659	   27.0740	    1.7376	
 -380.0000	-7.9400E-10	-7.9400E-10	-1.849750E-10	-1.849750E-10	   20.0142	   21.4649	   27.0797	    1.7396	
 -390.0000	-8.1500E-10	-8.1500E-10	-1.860864E-10	-1.860864E-10	   20.0039	   21.4671	   27.0889	    1.7462	
 -400.0000	-8.4200E-10	-8.4200E-10	-1.870427E-10	-1.870427E-10	   19.9987	   21.4687	   27.0677	    1.7368	
 -420.0000	-1.0390E-9	-1.0390E-9	-1.891768E-10	-1.891768E-10	   19.9858	   21.4687	   27.0731	    1.7368	
 -440.0000	-1.1350E-9	-1.1350E-9	-1.906744E-10	-1.906744E-10	   19.9858	   21.4626	   27.0731	    1.7343	
 -460.0000	-1.2240E-9	-1.2240E-9	-1.927113E-10	-1.927113E-10	   19.9833	   21.4621	   27.0765	    1.7356	
 -480.0000	-1.3400E-9	-1.3400E-9	-1.946276E-10	-1.946276E-10	   19.9833	   21.4640	   27.0737	    1.7358	
 -500.0000	-1.4830E-9	-1.4830E-9	-1.962961E-10	-1.962961E-10	   19.9858	   21.4577	   27.0636	    1.7252	
 -520.0000	-1.4290E-9	-1.4290E-9	-1.984726E-10	-1.984726E-10	   19.9987	   21.4577	   27.0648	    1.7252	
 -540.0000	-1.5450E-9	-1.5450E-9	-2.000039E-10	-2.000039E-10	   19.9987	   21.4577	   27.0648	    1.7258	
 -560.0000	-1.6130E-9	-1.6130E-9	-2.019249E-10	-2.019249E-10	   20.0090	   21.4602	   27.0708	    1.7311	
 -580.0000	-1.7830E-9	-1.7830E-9	-2.025943E-10	-2.025943E-10	   20.0167	   21.4631	   27.0591	    1.7275	
 -600.0000	-1.6550E-9	-1.6550E-9	-2.042279E-10	-2.042279E-10	   20.0296	   21.4631	   27.0598	    1.7275	
 -620.0000	-1.7470E-9	-1.7470E-9	-2.051118E-10	-2.051118E-10	   20.0296	   21.4631	   27.0598	    1.7278	
 -640.0000	-1.7410E-9	-1.7410E-9	-2.068890E-10	-2.068890E-10	   20.0347	   21.4596	   27.0566	    1.7232	
 -660.0000	-1.7660E-9	-1.7660E-9	-2.085875E-10	-2.085875E-10	   20.0322	   21.4586	   27.0357	    1.7117	
 -680.0000	-1.8170E-9	-1.8170E-9	-2.087118E-10	-2.087118E-10	   20.0296	   21.4532	   27.0376	    1.7080	
 -700.0000	-1.9030E-9	-1.9030E-9	-2.100939E-10	-2.100939E-10	   20.0193	   21.4532	   27.0398	    1.7080	
 -720.0000	-1.9220E-9	-1.9220E-9	-2.117089E-10	-2.117089E-10	   20.0193	   21.4579	   27.0398	    1.7131	
 -740.0000	-2.0070E-9	-2.0070E-9	-2.127478E-10	-2.127478E-10	   20.0090	   21.4599	   27.0427	    1.7164	
 -760.0000	-2.0870E-9	-2.0870E-9	-2.135639E-10	-2.135639E-10	   19.9961	   21.4599	   27.0509	    1.7164	
 -780.0000	-2.0570E-9	-2.0570E-9	-2.149255E-10	-2.149255E-10	   19.9961	   21.4596	   27.0509	    1.7203	
 -800.0000	-2.1540E-9	-2.1540E-9	-2.161144E-10	-2.161144E-10	   19.9858	   21.4567	   27.0443	    1.7144	
 -820.0000	-2.1260E-9	-2.1260E-9	-2.181466E-10	-2.181466E-10	   19.9781	   21.4567	   27.0449	    1.7144	
 -840.0000	-2.1510E-9	-2.1510E-9	-2.191309E-10	-2.191309E-10	   19.9781	   21.4640	   27.0449	    1.7210	
 -860.0000	-2.2710E-9	-2.2710E-9	-2.208707E-10	-2.208707E-10	   19.9781	   21.4573	   27.0509	    1.7183	
 -880.0000	-2.2610E-9	-2.2610E-9	-2.230629E-10	-2.230629E-10	   19.9833	   21.4594	   27.0436	    1.7164	
 -900.0000	-2.3260E-9	-2.3260E-9	-2.256992E-10	-2.256992E-10	   19.9833	   21.4594	   27.0436	    1.7164	
 -920.0000	-2.3930E-9	-2.3930E-9	-2.284686E-10	-2.284686E-10	   19.9936	   21.4567	   27.0402	    1.7123	
 -940.0000	-2.3800E-9	-2.3800E-9	-2.297939E-10	-2.297939E-10	   19.9987	   21.4592	   27.0405	    1.7146	
 -960.0000	-2.4280E-9	-2.4280E-9	-2.327501E-10	-2.327501E-10	   20.0116	   21.4575	   27.0351	    1.7104	
 -980.0000	-2.4600E-9	-2.4600E-9	-2.359584E-10	-2.359584E-10	   20.0116	   21.4575	   27.0351	    1.7104	
-1000.0000	-2.4840E-9	-2.4840E-9	-2.384248E-10	-2.384248E-10	   20.0245	   21.4586	   27.0408	    1.7142	
