GCD Test
Bias: 5000.000000
CV_34331_042_2-S_HM_XX_DIODEHALFPSTOP_Irradiated
Date/Time: 10/21/2021 2:12:54 PM
Sensor Name: DIODEHALFPSTOP
Type: P
Annealing Status: Irradiated and Annealed at 60C for 80 min
Environment: -15C
Tester: Andrew Kent

Time Delay per Ramp Step (s): 1.000

CV Time Delay per Measurement (s) :0.500

AC Voltage (V): 0.500

Current Number of measurements per voltage: 4.000

IV Time Delay per Measurement (s) :0.500


BiasVoltage	LCR_Cp_freq1000.0	LCR_Cp_freq10000.0	LCR_Rp_freq1000.0	LCR_Rp_freq10000.0	Temperature	Air_Temp	Humidity	Dewpoint	
  -10.0000	2.738E-12	1.367E-12	9.493E+6	3.156E+7	  -14.9501	    8.0556	   11.9111	  -19.7009	
  -20.0000	2.380E-12	1.347E-12	8.672E+6	3.078E+7	  -14.8733	    8.2239	   11.9214	  -19.5583	
  -30.0000	2.725E-12	1.350E-12	8.143E+6	3.303E+7	  -14.7900	    8.0497	   11.9187	  -19.6981	
  -40.0000	2.081E-12	1.316E-12	7.618E+6	3.366E+7	  -14.7900	    8.0497	   11.9187	  -19.6981	
  -50.0000	3.648E-12	1.294E-12	7.216E+6	2.979E+7	  -14.7773	    8.1154	   11.9506	  -19.6153	
  -60.0000	3.370E-12	1.290E-12	7.210E+6	3.130E+7	  -14.7830	    7.9416	   11.9114	  -19.7903	
  -70.0000	4.353E-12	1.240E-12	6.853E+6	3.080E+7	  -14.7926	    8.1075	   11.9187	  -19.6526	
  -80.0000	5.338E-12	1.240E-12	6.683E+6	3.018E+7	  -14.8348	    8.0989	   11.9295	  -19.6488	
  -90.0000	4.998E-12	1.205E-12	6.584E+6	2.969E+7	  -14.8348	    8.0989	   11.9295	  -19.6488	
 -100.0000	5.176E-12	1.158E-12	6.604E+6	2.920E+7	  -14.8796	    8.2066	   11.9276	  -19.5659	
 -110.0000	6.311E-12	1.151E-12	6.492E+6	2.875E+7	  -14.9237	    8.0596	   11.9348	  -19.6746	
 -120.0000	6.250E-12	1.162E-12	6.186E+6	2.602E+7	  -14.9677	    8.0946	   11.9244	  -19.6572	
 -130.0000	6.666E-12	1.159E-12	6.223E+6	2.650E+7	  -15.0079	    8.2513	   11.8997	  -19.5578	
 -140.0000	8.046E-12	1.154E-12	6.242E+6	2.481E+7	  -15.0079	    8.2513	   11.8997	  -19.5578	
 -150.0000	8.403E-12	1.110E-12	6.113E+6	2.477E+7	  -15.0295	    8.0734	   11.8879	  -19.7094	
 -160.0000	9.035E-12	1.097E-12	6.080E+6	2.386E+7	  -15.0180	    8.4388	   11.9342	  -19.3765	
 -170.0000	9.620E-12	1.048E-12	6.034E+6	2.282E+7	  -14.9692	    8.2845	   11.9407	  -19.4917	
 -180.0000	1.019E-11	1.034E-12	5.837E+6	2.212E+7	  -14.9071	    8.3747	   11.9310	  -19.4301	
 -190.0000	1.103E-11	1.008E-12	5.936E+6	2.009E+7	  -14.9071	    8.3747	   11.9310	  -19.4301	
 -200.0000	1.116E-11	1.000E-12	5.807E+6	1.997E+7	  -14.8392	    8.1545	   11.9226	  -19.6117	
 -210.0000	1.184E-11	9.484E-13	5.743E+6	1.874E+7	  -14.7829	    8.2630	   11.9158	  -19.5329	
 -220.0000	1.223E-11	9.244E-13	5.718E+6	1.836E+7	  -14.7786	    7.9555	   11.9048	  -19.7858	
 -230.0000	1.264E-11	8.915E-13	5.732E+6	1.761E+7	  -14.8073	    7.9340	   11.9066	  -19.8010	
 -240.0000	1.309E-11	8.609E-13	5.842E+6	1.700E+7	  -14.8247	    7.9418	   11.9074	  -19.7941	
 -250.0000	1.288E-11	8.621E-13	5.691E+6	1.677E+7	  -14.8247	    7.9418	   11.9074	  -19.7941	
 -260.0000	1.397E-11	8.282E-13	5.652E+6	1.592E+7	  -14.8721	    8.0570	   11.8841	  -19.7260	
 -270.0000	1.424E-11	8.276E-13	5.759E+6	1.514E+7	  -14.9160	    8.1603	   11.8819	  -19.6469	
 -280.0000	1.448E-11	7.770E-13	5.661E+6	1.487E+7	  -14.9727	    8.1766	   11.9130	  -19.6036	
 -290.0000	1.503E-11	7.653E-13	5.630E+6	1.436E+7	  -15.0202	    8.1749	   11.9143	  -19.6038	
 -300.0000	1.501E-11	7.741E-13	5.564E+6	1.387E+7	  -15.0202	    8.1749	   11.9143	  -19.6038	
 -310.0000	1.446E-11	7.491E-13	5.755E+6	1.339E+7	  -15.0303	    8.1489	   11.9381	  -19.6011	
 -320.0000	1.486E-11	7.258E-13	5.731E+6	1.295E+7	  -15.0416	    8.0438	   11.8943	  -19.7265	
 -330.0000	1.513E-11	6.984E-13	5.715E+6	1.250E+7	  -14.9779	    8.1586	   11.9118	  -19.6190	
 -340.0000	1.556E-11	6.674E-13	5.681E+6	1.207E+7	  -14.9373	    8.0529	   11.9170	  -19.6972	
 -350.0000	1.672E-11	6.684E-13	5.639E+6	1.157E+7	  -14.9373	    8.0529	   11.9170	  -19.6972	
 -360.0000	1.762E-11	5.945E-13	5.598E+6	1.144E+7	  -14.8563	    7.9580	   11.9046	  -19.7840	
 -370.0000	1.708E-11	5.605E-13	5.568E+6	1.126E+7	  -14.7799	    8.0474	   11.9156	  -19.7029	
 -380.0000	1.787E-11	5.500E-13	5.535E+6	1.074E+7	  -14.7615	    7.9691	   11.9014	  -19.7785	
 -390.0000	1.819E-11	5.170E-13	5.491E+6	1.036E+7	  -14.7683	    8.1511	   11.9046	  -19.6319	
 -400.0000	1.833E-11	5.192E-13	5.540E+6	1.006E+7	  -14.7683	    8.1511	   11.9046	  -19.6319	
 -410.0000	1.891E-11	4.965E-13	5.740E+6	9.691E+6	  -14.7922	    8.2495	   11.9196	  -19.5398	
 -420.0000	1.887E-11	4.582E-13	5.545E+6	9.465E+6	  -14.8031	    8.1660	   11.9122	  -19.6128	
 -430.0000	1.979E-11	4.398E-13	5.618E+6	9.158E+6	  -14.8641	    8.0506	   11.8875	  -19.7278	
 -440.0000	1.918E-11	4.366E-13	5.538E+6	9.010E+6	  -14.9210	    8.0493	   11.8803	  -19.7358	
 -450.0000	1.967E-11	3.909E-13	5.645E+6	8.865E+6	  -14.9210	    8.0493	   11.8803	  -19.7358	
 -460.0000	1.975E-11	4.042E-13	5.600E+6	8.602E+6	  -14.9741	    8.2254	   11.9039	  -19.5741	
 -470.0000	1.999E-11	3.840E-13	5.615E+6	8.386E+6	  -15.0195	    8.0839	   11.8980	  -19.6913	
 -480.0000	2.017E-11	4.035E-13	5.542E+6	8.269E+6	  -15.0399	    8.0879	   11.9033	  -19.6830	
 -490.0000	2.031E-11	3.697E-13	5.587E+6	8.005E+6	  -15.0093	    7.9278	   11.9253	  -19.7877	
 -500.0000	2.034E-11	3.576E-13	5.592E+6	7.777E+6	  -15.0093	    7.9278	   11.9253	  -19.7877	
 -510.0000	2.110E-11	3.019E-13	5.534E+6	7.602E+6	  -14.9696	    8.0754	   11.8833	  -19.7123	
 -520.0000	2.139E-11	3.157E-13	5.630E+6	7.514E+6	  -14.9049	    7.8000	   11.8668	  -19.9453	
 -530.0000	2.115E-11	2.895E-13	5.522E+6	7.326E+6	  -14.8452	    7.9207	   11.9112	  -19.8071	
 -540.0000	2.233E-11	2.910E-13	5.632E+6	7.125E+6	  -14.7789	    8.0421	   11.8874	  -19.7345	
 -550.0000	2.204E-11	2.987E-13	5.490E+6	7.101E+6	  -14.7789	    8.0421	   11.8874	  -19.7345	
 -560.0000	2.235E-11	2.578E-13	5.463E+6	6.911E+6	  -14.7444	    8.1544	   11.9025	  -19.6314	
 -570.0000	2.310E-11	2.425E-13	5.519E+6	6.765E+6	  -14.7654	    8.2875	   11.8700	  -19.5583	
 -580.0000	2.246E-11	2.230E-13	5.409E+6	6.582E+6	  -14.8060	    8.0892	   11.8908	  -19.6942	
 -590.0000	2.244E-11	2.310E-13	5.464E+6	6.529E+6	  -14.8348	    8.2254	   11.8939	  -19.5838	
 -600.0000	2.272E-11	2.303E-13	5.493E+6	6.426E+6	  -14.8348	    8.2254	   11.8939	  -19.5838	
 -610.0000	2.268E-11	2.467E-13	5.588E+6	6.296E+6	  -14.8805	    8.0388	   11.8976	  -19.7272	
 -620.0000	2.276E-11	2.428E-13	5.536E+6	6.193E+6	  -14.9308	    8.2040	   11.8722	  -19.6219	
 -630.0000	2.309E-11	2.495E-13	5.583E+6	6.146E+6	  -14.9902	    8.0314	   11.8870	  -19.7434	
 -640.0000	2.337E-11	2.570E-13	5.529E+6	6.021E+6	  -15.0156	    8.1512	   11.9020	  -19.6344	
 -650.0000	2.332E-11	2.614E-13	5.519E+6	5.972E+6	  -15.0213	    8.0199	   11.8734	  -19.7657	
 -660.0000	2.337E-11	2.415E-13	5.481E+6	5.804E+6	  -15.0213	    8.0199	   11.8734	  -19.7657	
 -670.0000	2.312E-11	2.396E-13	5.544E+6	5.783E+6	  -14.9975	    8.1926	   11.8963	  -19.6073	
 -680.0000	2.339E-11	2.453E-13	5.533E+6	5.673E+6	  -14.9601	    8.1460	   11.8582	  -19.6812	
 -690.0000	2.363E-11	2.290E-13	5.529E+6	5.605E+6	  -14.8860	    8.1566	   11.8726	  -19.6588	
 -700.0000	2.401E-11	2.402E-13	5.601E+6	5.492E+6	  -14.8033	    7.8517	   11.8645	  -19.9068	
 -710.0000	2.363E-11	2.000E-13	5.524E+6	5.422E+6	  -14.8033	    7.8517	   11.8645	  -19.9068	
 -720.0000	2.447E-11	2.219E-13	5.467E+6	5.306E+6	  -14.7495	    8.1290	   11.8969	  -19.6568	
 -730.0000	2.427E-11	2.091E-13	5.445E+6	5.232E+6	  -14.7322	    8.1120	   11.8768	  -19.6898	
 -740.0000	2.454E-11	2.113E-13	5.547E+6	5.134E+6	  -14.7452	    8.0806	   11.8715	  -19.7197	
 -750.0000	2.443E-11	2.565E-13	5.500E+6	5.079E+6	  -14.7791	    8.1445	   11.9041	  -19.6376	
 -760.0000	2.480E-11	2.319E-13	5.607E+6	5.045E+6	  -14.7791	    8.1445	   11.9041	  -19.6376	
 -770.0000	2.489E-11	2.956E-13	5.634E+6	5.043E+6	  -14.8285	    8.2336	   11.9097	  -19.5620	
 -780.0000	2.449E-11	2.775E-13	5.470E+6	4.957E+6	  -14.8701	    8.2746	   11.8863	  -19.5525	
 -790.0000	2.443E-11	2.960E-13	5.483E+6	4.920E+6	  -14.9281	    7.9805	   11.9007	  -19.7701	
 -800.0000	2.466E-11	2.964E-13	5.470E+6	4.870E+6	  -14.9803	    7.9575	   11.9140	  -19.7753	
 -810.0000	2.460E-11	2.971E-13	5.596E+6	4.858E+6	  -14.9803	    7.9575	   11.9140	  -19.7753	
 -820.0000	2.466E-11	3.517E-13	5.542E+6	4.781E+6	  -15.0133	    8.0452	   11.9009	  -19.7190	
 -830.0000	2.454E-11	3.464E-13	5.633E+6	4.797E+6	  -15.0039	    8.1654	   11.8674	  -19.6569	
 -840.0000	2.438E-11	3.236E-13	5.580E+6	4.720E+6	  -14.9737	    8.0804	   11.8874	  -19.7044	
 -850.0000	2.489E-11	3.389E-13	5.554E+6	4.658E+6	  -14.9737	    8.0804	   11.8874	  -19.7044	
 -860.0000	2.370E-11	3.468E-13	5.506E+6	4.635E+6	  -14.9268	    8.1926	   11.9089	  -19.5951	
 -870.0000	2.482E-11	3.490E-13	5.540E+6	4.535E+6	  -14.8450	    8.0631	   11.9029	  -19.7029	
 -880.0000	2.486E-11	3.520E-13	5.557E+6	4.487E+6	  -14.7577	    8.0444	   11.8811	  -19.7389	
 -890.0000	2.536E-11	3.749E-13	5.611E+6	4.424E+6	  -14.7250	    8.1106	   11.9073	  -19.6612	
 -900.0000	2.603E-11	3.489E-13	5.617E+6	4.414E+6	  -14.7253	    8.0196	   11.8889	  -19.7507	
 -910.0000	2.527E-11	3.790E-13	5.530E+6	4.369E+6	  -14.7253	    8.0196	   11.8889	  -19.7507	
 -920.0000	2.486E-11	3.965E-13	5.542E+6	4.345E+6	  -14.7620	    8.1044	   11.8964	  -19.6767	
 -930.0000	2.559E-11	4.155E-13	5.611E+6	4.278E+6	  -14.7896	    8.1309	   11.8893	  -19.6627	
 -940.0000	2.570E-11	4.128E-13	5.580E+6	4.249E+6	  -14.8584	    7.9074	   11.8987	  -19.8297	
 -950.0000	2.548E-11	4.331E-13	5.493E+6	4.225E+6	  -14.8977	    8.1597	   11.8803	  -19.6488	
 -960.0000	2.568E-11	4.289E-13	5.566E+6	4.228E+6	  -14.8977	    8.1597	   11.8803	  -19.6488	
 -970.0000	2.555E-11	4.399E-13	5.623E+6	4.206E+6	  -14.9521	    8.1574	   11.9010	  -19.6305	
 -980.0000	2.580E-11	4.495E-13	5.670E+6	4.129E+6	  -14.9953	    7.9865	   11.8536	  -19.8112	
 -990.0000	2.490E-11	4.760E-13	5.563E+6	4.133E+6	  -14.9691	    8.0812	   11.8842	  -19.7068	
-1000.0000	2.545E-11	4.924E-13	5.475E+6	4.128E+6	  -14.9469	    8.1943	   11.8991	  -19.6033	
