GCD Test
Bias: 5000.000000
IV_34252_008_PSS_HM_XX_DIODEHALFPSTOP_Irradiated
Date/Time: 5/28/2021 5:38:48 PM
Sensor Name: DIODEHALFPSTOP
Type: P
Annealing Status: Irradiated, Annealed for 80 min at 60C
Environment: RT
Tester: Andrew Kent

Time Delay per Ramp Step (s): 1.000

CV Time Delay per Measurement (s) :0.500

AC Voltage (V): 0.500

Current Number of measurements per voltage: 4.000

IV Time Delay per Measurement (s) :0.000


BiasVoltage	Bias Current_Avg	Bias Current_0	Bias Current_1	Bias Current_2	Bias Current_3	Temperature	Air_Temp	Humidity	Dewpoint	
  -10.0000	-3.094469E-7	-3.088008E-7	-3.103429E-7	-3.090551E-7	-3.095887E-7	  -20.8782	   11.1797	    3.6954	  -30.2849	
  -20.0000	-4.188402E-7	-4.190163E-7	-4.179394E-7	-4.191421E-7	-4.192630E-7	  -20.8782	   11.1570	    3.6553	  -30.4153	
  -30.0000	-5.022861E-7	-5.020926E-7	-5.019085E-7	-5.040785E-7	-5.010646E-7	  -20.8782	   11.1570	    3.6553	  -30.4153	
  -40.0000	-5.719467E-7	-5.714540E-7	-5.718264E-7	-5.716682E-7	-5.728382E-7	  -20.8884	   11.0720	    3.6139	  -30.5936	
  -50.0000	-6.313206E-7	-6.303482E-7	-6.321248E-7	-6.310239E-7	-6.317857E-7	  -20.8731	   11.0743	    3.5870	  -30.6701	
  -60.0000	-6.837503E-7	-6.822882E-7	-6.847939E-7	-6.834622E-7	-6.844569E-7	  -20.8731	   11.0743	    3.5870	  -30.6701	
  -70.0000	-7.324186E-7	-7.345864E-7	-7.321047E-7	-7.296307E-7	-7.333525E-7	  -20.8680	   11.0984	    3.5376	  -30.7980	
  -80.0000	-7.806986E-7	-7.822491E-7	-7.802637E-7	-7.794687E-7	-7.808128E-7	  -20.8579	   11.1425	    3.5149	  -30.8348	
  -90.0000	-8.180790E-7	-8.201112E-7	-8.199185E-7	-8.157311E-7	-8.165551E-7	  -20.8477	   11.0969	    3.4829	  -30.9616	
 -100.0000	-8.514356E-7	-8.521711E-7	-8.507990E-7	-8.521437E-7	-8.506285E-7	  -20.8477	   11.0969	    3.4829	  -30.9616	
 -110.0000	-8.948596E-7	-8.952858E-7	-8.958822E-7	-8.947025E-7	-8.935678E-7	  -20.8248	   11.0969	    3.4355	  -31.1043	
 -120.0000	-9.277968E-7	-9.276129E-7	-9.289917E-7	-9.263731E-7	-9.282095E-7	  -20.8121	   11.1427	    3.4089	  -31.1534	
 -130.0000	-9.652021E-7	-9.658893E-7	-9.696575E-7	-9.638361E-7	-9.614254E-7	  -20.8121	   11.1427	    3.4089	  -31.1534	
 -140.0000	-9.945310E-7	-9.969564E-7	-9.968885E-7	-9.937364E-7	-9.905425E-7	  -20.7663	   11.1152	    3.3820	  -31.2548	
 -150.0000	-1.021493E-6	-1.020255E-6	-1.023347E-6	-1.021471E-6	-1.020899E-6	  -20.7460	   11.0604	    3.3520	  -31.3852	
 -160.0000	-1.057628E-6	-1.055426E-6	-1.054087E-6	-1.062708E-6	-1.058292E-6	  -20.6951	   11.0999	    3.2995	  -31.5217	
 -170.0000	-1.086647E-6	-1.087654E-6	-1.085422E-6	-1.084198E-6	-1.089312E-6	  -20.6951	   11.0999	    3.2995	  -31.5217	
 -180.0000	-1.110876E-6	-1.113946E-6	-1.110663E-6	-1.108390E-6	-1.110504E-6	  -20.6722	   11.0536	    3.2843	  -31.6013	
 -190.0000	-1.145097E-6	-1.144877E-6	-1.147300E-6	-1.144380E-6	-1.143830E-6	  -20.6315	   11.0176	    3.2432	  -31.7564	
 -200.0000	-1.169889E-6	-1.169199E-6	-1.169521E-6	-1.169408E-6	-1.171426E-6	  -20.6315	   11.0176	    3.2432	  -31.7564	
 -210.0000	-1.192805E-6	-1.194616E-6	-1.191691E-6	-1.190235E-6	-1.194677E-6	  -20.5832	   11.0200	    3.2271	  -31.8063	
 -220.0000	-1.223356E-6	-1.227395E-6	-1.223220E-6	-1.222249E-6	-1.220560E-6	  -20.5578	   10.9755	    3.1980	  -31.9304	
 -230.0000	-1.255428E-6	-1.251488E-6	-1.253539E-6	-1.257515E-6	-1.259171E-6	  -20.4942	   10.9755	    3.1980	  -31.9304	
 -240.0000	-1.284948E-6	-1.286274E-6	-1.284748E-6	-1.284760E-6	-1.284012E-6	  -20.4942	   11.0604	    3.1749	  -31.9470	
 -250.0000	-1.300120E-6	-1.298008E-6	-1.301107E-6	-1.302083E-6	-1.299284E-6	  -20.4459	   11.0604	    3.1550	  -32.0119	
 -260.0000	-1.320161E-6	-1.324383E-6	-1.320381E-6	-1.317831E-6	-1.318049E-6	  -20.4077	   11.0184	    3.1186	  -32.1602	
 -270.0000	-1.346026E-6	-1.345215E-6	-1.350698E-6	-1.343821E-6	-1.344371E-6	  -20.4077	   11.0184	    3.1186	  -32.1602	
 -280.0000	-1.366162E-6	-1.364457E-6	-1.364273E-6	-1.364096E-6	-1.371821E-6	  -20.3492	   11.0170	    3.0958	  -32.2366	
 -290.0000	-1.397764E-6	-1.390208E-6	-1.394114E-6	-1.404108E-6	-1.402628E-6	  -20.3034	   10.9466	    3.0759	  -32.3512	
 -300.0000	-1.430655E-6	-1.435455E-6	-1.429006E-6	-1.429853E-6	-1.428305E-6	  -20.2500	   10.9466	    3.0759	  -32.3512	
 -310.0000	-1.449555E-6	-1.450581E-6	-1.450242E-6	-1.450030E-6	-1.447366E-6	  -20.2500	   10.9765	    3.0509	  -32.4145	
 -320.0000	-1.470885E-6	-1.466687E-6	-1.468758E-6	-1.473908E-6	-1.474188E-6	  -20.2093	   10.9765	    3.0332	  -32.4743	
 -330.0000	-1.492491E-6	-1.493883E-6	-1.494014E-6	-1.493897E-6	-1.488170E-6	  -20.1712	   10.9122	    3.0225	  -32.5546	
 -340.0000	-1.511618E-6	-1.506655E-6	-1.515872E-6	-1.513145E-6	-1.510800E-6	  -20.1712	   10.9122	    3.0225	  -32.5546	
 -350.0000	-1.543947E-6	-1.550434E-6	-1.542972E-6	-1.541843E-6	-1.540539E-6	  -20.1279	   10.8644	    2.9883	  -32.7038	
 -360.0000	-1.569565E-6	-1.570551E-6	-1.564386E-6	-1.569995E-6	-1.573327E-6	  -20.0898	   10.9213	    2.9747	  -32.7117	
 -370.0000	-1.580587E-6	-1.581575E-6	-1.580091E-6	-1.582913E-6	-1.577769E-6	  -20.0338	   10.9213	    2.9747	  -32.7117	
 -380.0000	-1.611220E-6	-1.610068E-6	-1.607773E-6	-1.613129E-6	-1.613911E-6	  -20.0338	   10.9383	    2.9532	  -32.7745	
 -390.0000	-1.632180E-6	-1.634229E-6	-1.632627E-6	-1.635649E-6	-1.626216E-6	  -19.9982	   10.9383	    2.9292	  -32.8581	
 -400.0000	-1.650230E-6	-1.649484E-6	-1.656312E-6	-1.650168E-6	-1.644958E-6	  -19.9550	   10.9146	    2.9244	  -32.8908	
 -410.0000	-1.661512E-6	-1.662958E-6	-1.660128E-6	-1.664748E-6	-1.658214E-6	  -19.9550	   10.9146	    2.9244	  -32.8908	
 -420.0000	-1.681363E-6	-1.679068E-6	-1.683231E-6	-1.683143E-6	-1.680009E-6	  -19.8990	   10.8392	    2.9039	  -33.0142	
 -430.0000	-1.704140E-6	-1.703640E-6	-1.703739E-6	-1.704721E-6	-1.704461E-6	  -19.8736	   10.8524	    2.8849	  -33.0722	
 -440.0000	-1.722681E-6	-1.717908E-6	-1.721226E-6	-1.722147E-6	-1.729443E-6	  -19.8380	   10.8524	    2.8849	  -33.0722	
 -450.0000	-1.748529E-6	-1.750162E-6	-1.748287E-6	-1.744326E-6	-1.751342E-6	  -19.8380	   10.9266	    2.8675	  -33.0835	
 -460.0000	-1.758472E-6	-1.764883E-6	-1.760280E-6	-1.755902E-6	-1.752825E-6	  -19.8024	   10.9266	    2.8488	  -33.1501	
 -470.0000	-1.790190E-6	-1.782875E-6	-1.785933E-6	-1.796570E-6	-1.795380E-6	  -19.7769	   10.9631	    2.8343	  -33.1776	
 -480.0000	-1.803230E-6	-1.806730E-6	-1.800186E-6	-1.807019E-6	-1.798986E-6	  -19.7769	   10.9631	    2.8343	  -33.1776	
 -490.0000	-1.806826E-6	-1.801492E-6	-1.806555E-6	-1.808179E-6	-1.811077E-6	  -19.7438	   10.9390	    2.8172	  -33.2556	
 -500.0000	-1.826802E-6	-1.825377E-6	-1.828230E-6	-1.826204E-6	-1.827398E-6	  -19.7362	   10.9106	    2.8109	  -33.2977	
 -510.0000	-1.850901E-6	-1.847287E-6	-1.850122E-6	-1.852390E-6	-1.853805E-6	  -19.7159	   10.9106	    2.8109	  -33.2977	
 -520.0000	-1.867690E-6	-1.870385E-6	-1.866648E-6	-1.868645E-6	-1.865081E-6	  -19.7159	   10.8622	    2.7859	  -33.4214	
 -530.0000	-1.885616E-6	-1.882082E-6	-1.881333E-6	-1.891018E-6	-1.888032E-6	  -19.6981	   10.8622	    2.7720	  -33.4723	
 -540.0000	-1.906518E-6	-1.906558E-6	-1.904907E-6	-1.903427E-6	-1.911180E-6	  -19.6828	   10.8507	    2.7729	  -33.4766	
 -550.0000	-1.933641E-6	-1.934520E-6	-1.934078E-6	-1.935387E-6	-1.930578E-6	  -19.6828	   10.8507	    2.7729	  -33.4766	
 -560.0000	-1.937515E-6	-1.939260E-6	-1.931969E-6	-1.941240E-6	-1.937589E-6	  -19.6752	   10.8014	    2.7549	  -33.5762	
 -570.0000	-1.956915E-6	-1.957512E-6	-1.948932E-6	-1.957613E-6	-1.963604E-6	  -19.6650	   10.8575	    2.7451	  -33.5745	
 -580.0000	-1.975044E-6	-1.977474E-6	-1.981690E-6	-1.968715E-6	-1.972296E-6	  -19.6497	   10.8575	    2.7451	  -33.5745	
 -590.0000	-1.979172E-6	-1.982925E-6	-1.977260E-6	-1.979433E-6	-1.977070E-6	  -19.6497	   10.8350	    2.7366	  -33.6214	
 -600.0000	-2.009612E-6	-2.002259E-6	-2.005100E-6	-2.010893E-6	-2.020196E-6	  -19.6421	   10.8350	    2.7473	  -33.5816	
 -610.0000	-2.027109E-6	-2.022463E-6	-2.021225E-6	-2.029957E-6	-2.034792E-6	  -19.6421	   10.8010	    2.7416	  -33.6256	
 -620.0000	-2.056037E-6	-2.055810E-6	-2.053976E-6	-2.056683E-6	-2.057681E-6	  -19.6421	   10.8010	    2.7416	  -33.6256	
 -630.0000	-2.067351E-6	-2.067089E-6	-2.062687E-6	-2.067336E-6	-2.072293E-6	  -19.6319	   10.8455	    2.7441	  -33.5862	
 -640.0000	-2.087020E-6	-2.091906E-6	-2.081480E-6	-2.087171E-6	-2.087522E-6	  -19.6319	   10.8222	    2.7353	  -33.6347	
 -650.0000	-2.092359E-6	-2.098114E-6	-2.087959E-6	-2.090164E-6	-2.093198E-6	  -19.6370	   10.8222	    2.7353	  -33.6347	
 -660.0000	-2.109325E-6	-2.106866E-6	-2.111708E-6	-2.106371E-6	-2.112354E-6	  -19.6370	   10.7890	    2.7087	  -33.7562	
 -670.0000	-2.130361E-6	-2.129826E-6	-2.134332E-6	-2.130812E-6	-2.126473E-6	  -19.6421	   10.7890	    2.7160	  -33.7290	
 -680.0000	-2.144122E-6	-2.140782E-6	-2.143915E-6	-2.149212E-6	-2.142578E-6	  -19.6421	   10.7890	    2.7160	  -33.7290	
 -690.0000	-2.153733E-6	-2.148971E-6	-2.152498E-6	-2.156774E-6	-2.156690E-6	  -19.6650	   10.8047	    2.6917	  -33.8097	
 -700.0000	-2.164113E-6	-2.167006E-6	-2.170548E-6	-2.156219E-6	-2.162679E-6	  -19.6752	   10.8180	    2.6812	  -33.8401	
 -710.0000	-2.170477E-6	-2.173203E-6	-2.179166E-6	-2.168544E-6	-2.160997E-6	  -19.7057	   10.8180	    2.6812	  -33.8401	
 -720.0000	-2.166264E-6	-2.164428E-6	-2.160834E-6	-2.169753E-6	-2.170040E-6	  -19.7057	   10.8390	    2.6872	  -33.8032	
 -730.0000	-2.193964E-6	-2.184836E-6	-2.193134E-6	-2.198664E-6	-2.199223E-6	  -19.7210	   10.8390	    2.6562	  -33.9208	
 -740.0000	-2.200100E-6	-2.201185E-6	-2.195315E-6	-2.204317E-6	-2.199584E-6	  -19.7311	   10.8823	    2.6616	  -33.8712	
 -750.0000	-2.209012E-6	-2.207213E-6	-2.208988E-6	-2.210715E-6	-2.209130E-6	  -19.7311	   10.8823	    2.6616	  -33.8712	
 -760.0000	-2.221611E-6	-2.214780E-6	-2.219522E-6	-2.217663E-6	-2.234478E-6	  -19.7566	   10.8464	    2.6445	  -33.9605	
 -770.0000	-2.246122E-6	-2.248761E-6	-2.243476E-6	-2.245990E-6	-2.246260E-6	  -19.7642	   10.8317	    2.6369	  -33.9995	
 -780.0000	-2.257115E-6	-2.262498E-6	-2.255691E-6	-2.255207E-6	-2.255063E-6	  -19.7820	   10.8317	    2.6369	  -33.9995	
 -790.0000	-2.252264E-6	-2.249224E-6	-2.252864E-6	-2.249085E-6	-2.257882E-6	  -19.7820	   10.7597	    2.6237	  -34.0990	
 -800.0000	-2.273341E-6	-2.274694E-6	-2.273404E-6	-2.268526E-6	-2.276741E-6	  -19.7947	   10.7597	    2.6221	  -34.1051	
 -810.0000	-2.278073E-6	-2.276279E-6	-2.277690E-6	-2.280078E-6	-2.278247E-6	  -19.8125	   10.7363	    2.6053	  -34.1857	
 -820.0000	-2.288959E-6	-2.293606E-6	-2.287130E-6	-2.287585E-6	-2.287513E-6	  -19.8125	   10.7363	    2.6053	  -34.1857	
 -830.0000	-2.315905E-6	-2.314552E-6	-2.319922E-6	-2.315786E-6	-2.313361E-6	  -19.8354	   10.6548	    2.6110	  -34.2184	
 -840.0000	-2.332012E-6	-2.337962E-6	-2.333266E-6	-2.327949E-6	-2.328871E-6	  -19.8507	   10.6947	    2.6053	  -34.2136	
 -850.0000	-2.334159E-6	-2.333953E-6	-2.342053E-6	-2.332436E-6	-2.328195E-6	  -19.8787	   10.6947	    2.6053	  -34.2136	
 -860.0000	-2.348487E-6	-2.352062E-6	-2.349669E-6	-2.342030E-6	-2.350187E-6	  -19.8787	   10.7256	    2.5651	  -34.3496	
 -870.0000	-2.341635E-6	-2.338254E-6	-2.341705E-6	-2.348717E-6	-2.337865E-6	  -19.8939	   10.7256	    2.5835	  -34.2778	
 -880.0000	-2.357689E-6	-2.358071E-6	-2.349798E-6	-2.360459E-6	-2.362428E-6	  -19.9194	   10.7364	    2.5572	  -34.3735	
 -890.0000	-2.355533E-6	-2.363744E-6	-2.355275E-6	-2.349660E-6	-2.353453E-6	  -19.9194	   10.7364	    2.5572	  -34.3735	
 -900.0000	-2.359664E-6	-2.359554E-6	-2.364321E-6	-2.361965E-6	-2.352816E-6	  -19.9423	   10.7063	    2.5715	  -34.3377	
 -910.0000	-2.392784E-6	-2.400068E-6	-2.385666E-6	-2.396197E-6	-2.389203E-6	  -19.9626	   10.6618	    2.5642	  -34.3962	
 -920.0000	-2.384581E-6	-2.379819E-6	-2.383492E-6	-2.385211E-6	-2.389802E-6	  -19.9931	   10.6618	    2.5642	  -34.3962	
 -930.0000	-2.376067E-6	-2.375475E-6	-2.382332E-6	-2.375294E-6	-2.371166E-6	  -19.9931	   10.6263	    2.5696	  -34.3989	
 -940.0000	-2.410015E-6	-2.404722E-6	-2.410804E-6	-2.414524E-6	-2.410009E-6	  -20.0186	   10.6263	    2.5639	  -34.4213	
 -950.0000	-2.427810E-6	-2.433369E-6	-2.428809E-6	-2.427833E-6	-2.421227E-6	  -20.0415	   10.6001	    2.5705	  -34.4128	
 -960.0000	-2.437967E-6	-2.437305E-6	-2.442437E-6	-2.434092E-6	-2.438035E-6	  -20.0415	   10.6001	    2.5705	  -34.4128	
 -970.0000	-2.443883E-6	-2.443035E-6	-2.447496E-6	-2.446901E-6	-2.438102E-6	  -20.0491	   10.5766	    2.5664	  -34.4447	
 -980.0000	-2.445676E-6	-2.450444E-6	-2.444963E-6	-2.441958E-6	-2.445338E-6	  -20.0669	   10.5924	    2.5579	  -34.4676	
 -990.0000	-2.461416E-6	-2.463973E-6	-2.462477E-6	-2.463804E-6	-2.455412E-6	  -20.0923	   10.5924	    2.5579	  -34.4676	
-1000.0000	-2.479034E-6	-2.482058E-6	-2.482198E-6	-2.476805E-6	-2.475075E-6	  -20.0923	   10.6029	    2.5500	  -34.4918	
