GCD Test
Bias: 5000.000000
CV_36696_039_PSS_HM_XX_DIODE_Irradiated
Date/Time: 9/20/2021 2:56:10 PM
Sensor Name: DIODE
Type: P
Annealing Status: Irradiated and Annealed for 80min at 60C
Environment: -20C
Tester: Andrew Kent

Time Delay per Ramp Step (s): 1.000

CV Time Delay per Measurement (s) :0.500

AC Voltage (V): 0.500

Current Number of measurements per voltage: 4.000

IV Time Delay per Measurement (s) :0.000


BiasVoltage	LCR_Cp_freq1000.0	LCR_Cp_freq10000.0	LCR_Rp_freq1000.0	LCR_Rp_freq10000.0	Temperature	Air_Temp	Humidity	Dewpoint	
  -10.0000	6.707E-11	2.400E-11	1.498E+6	9.466E+5	  -19.9931	    9.0665	    3.0977	  -33.5659	
  -20.0000	6.818E-11	2.409E-11	1.685E+6	9.903E+5	  -19.9957	    9.0985	    3.1214	  -33.4664	
  -30.0000	6.760E-11	2.418E-11	1.818E+6	1.021E+6	  -19.9982	    9.0907	    3.1316	  -33.4388	
  -40.0000	6.721E-11	2.424E-11	1.932E+6	1.046E+6	  -19.9982	    9.0907	    3.1448	  -33.3958	
  -50.0000	6.599E-11	2.430E-11	2.015E+6	1.066E+6	  -20.0059	    9.0818	    3.1698	  -33.3213	
  -60.0000	6.537E-11	2.437E-11	2.091E+6	1.085E+6	  -20.0109	    9.1018	    3.1505	  -33.3697	
  -70.0000	6.466E-11	2.443E-11	2.157E+6	1.105E+6	  -20.0109	    9.1165	    3.1509	  -33.3587	
  -80.0000	6.412E-11	2.445E-11	2.223E+6	1.110E+6	  -20.0135	    9.1179	    3.1505	  -33.3587	
  -90.0000	6.320E-11	2.449E-11	2.252E+6	1.127E+6	  -20.0109	    9.0627	    3.1499	  -33.3986	
 -100.0000	6.298E-11	2.456E-11	2.301E+6	1.137E+6	  -20.0059	    9.0787	    3.1559	  -33.3683	
 -110.0000	6.228E-11	2.456E-11	2.325E+6	1.149E+6	  -20.0059	    9.0584	    3.1648	  -33.3537	
 -120.0000	6.143E-11	2.458E-11	2.376E+6	1.157E+6	  -20.0033	    9.0728	    3.2109	  -33.1962	
 -130.0000	6.131E-11	2.462E-11	2.393E+6	1.165E+6	  -20.0033	    9.0792	    3.2182	  -33.1687	
 -140.0000	6.089E-11	2.463E-11	2.430E+6	1.173E+6	  -20.0059	    9.0712	    3.2331	  -33.1272	
 -150.0000	6.062E-11	2.465E-11	2.453E+6	1.184E+6	  -20.0008	    9.0822	    3.2388	  -33.1017	
 -160.0000	6.023E-11	2.465E-11	2.461E+6	1.187E+6	  -20.0008	    9.0883	    3.2378	  -33.1004	
 -170.0000	6.054E-11	2.465E-11	2.480E+6	1.191E+6	  -20.0008	    9.0916	    3.2302	  -33.1222	
 -180.0000	6.053E-11	2.466E-11	2.481E+6	1.190E+6	  -20.0008	    9.1120	    3.2249	  -33.1251	
 -190.0000	6.071E-11	2.467E-11	2.476E+6	1.187E+6	  -20.0008	    9.1015	    3.2268	  -33.1263	
 -200.0000	6.061E-11	2.466E-11	2.478E+6	1.192E+6	  -20.0008	    9.0970	    3.2245	  -33.1364	
 -210.0000	6.043E-11	2.466E-11	2.492E+6	1.193E+6	  -19.9982	    9.0786	    3.2549	  -33.0534	
 -220.0000	6.034E-11	2.467E-11	2.492E+6	1.193E+6	  -20.0008	    9.0864	    3.2502	  -33.0630	
 -230.0000	6.024E-11	2.467E-11	2.467E+6	1.190E+6	  -19.9957	    9.0986	    3.2574	  -33.0317	
 -240.0000	6.025E-11	2.467E-11	2.481E+6	1.193E+6	  -19.9982	    9.1121	    3.2502	  -33.0452	
 -250.0000	6.054E-11	2.467E-11	2.475E+6	1.195E+6	  -19.9906	    9.1422	    3.2334	  -33.0773	
 -260.0000	6.024E-11	2.467E-11	2.480E+6	1.194E+6	  -19.9906	    9.1532	    3.2220	  -33.1057	
 -270.0000	5.997E-11	2.467E-11	2.483E+6	1.194E+6	  -19.9906	    9.1705	    3.2249	  -33.0848	
 -280.0000	6.049E-11	2.467E-11	2.481E+6	1.193E+6	  -19.9880	    9.1431	    3.2290	  -33.0907	
 -290.0000	6.010E-11	2.468E-11	2.462E+6	1.195E+6	  -19.9880	    9.1177	    3.2236	  -33.1252	
 -300.0000	6.051E-11	2.467E-11	2.483E+6	1.196E+6	  -19.9906	    9.1209	    3.2271	  -33.1120	
 -310.0000	6.010E-11	2.468E-11	2.490E+6	1.192E+6	  -19.9931	    9.0872	    3.2258	  -33.1392	
 -320.0000	6.007E-11	2.468E-11	2.481E+6	1.196E+6	  -19.9931	    9.0929	    3.2350	  -33.1063	
 -330.0000	6.037E-11	2.467E-11	2.490E+6	1.192E+6	  -19.9957	    9.0929	    3.2619	  -33.0218	
 -340.0000	6.001E-11	2.467E-11	2.481E+6	1.195E+6	  -20.0008	    9.1063	    3.2849	  -32.9848	
 -350.0000	6.027E-11	2.467E-11	2.484E+6	1.198E+6	  -19.9982	    9.1147	    3.3112	  -32.8533	
 -360.0000	5.987E-11	2.468E-11	2.472E+6	1.195E+6	  -20.0008	    9.1123	    3.3213	  -32.8237	
 -370.0000	6.040E-11	2.466E-11	2.483E+6	1.196E+6	  -19.9982	    9.1040	    3.3466	  -32.7517	
 -380.0000	6.024E-11	2.467E-11	2.504E+6	1.197E+6	  -20.0008	    9.0992	    3.3678	  -32.6904	
 -390.0000	6.001E-11	2.467E-11	2.498E+6	1.197E+6	  -20.0033	    9.1057	    3.3963	  -32.5996	
 -400.0000	5.982E-11	2.467E-11	2.491E+6	1.201E+6	  -20.0059	    9.0720	    3.4118	  -32.5763	
 -410.0000	6.032E-11	2.467E-11	2.489E+6	1.198E+6	  -20.0059	    9.0999	    3.4447	  -32.4585	
 -420.0000	6.011E-11	2.467E-11	2.487E+6	1.196E+6	  -20.0059	    9.1151	    3.4646	  -32.3887	
 -430.0000	6.001E-11	2.467E-11	2.475E+6	1.198E+6	  -20.0084	    9.1074	    3.4643	  -32.3950	
 -440.0000	6.006E-11	2.468E-11	2.469E+6	1.196E+6	  -20.0084	    9.1218	    3.4693	  -32.3699	
 -450.0000	6.021E-11	2.476E-11	2.483E+6	1.202E+6	  -20.0135	    9.1266	    3.4665	  -32.3751	
 -460.0000	6.006E-11	2.476E-11	2.479E+6	1.199E+6	  -20.0135	    9.1126	    3.4674	  -32.3820	
 -470.0000	5.993E-11	2.478E-11	2.501E+6	1.199E+6	  -20.0135	    9.1120	    3.4538	  -32.4228	
 -480.0000	6.021E-11	2.467E-11	2.501E+6	1.196E+6	  -20.0109	    9.1049	    3.4374	  -32.4767	
 -490.0000	6.012E-11	2.476E-11	2.485E+6	1.200E+6	  -20.0084	    9.1231	    3.4355	  -32.4698	
 -500.0000	6.012E-11	2.467E-11	2.503E+6	1.196E+6	  -20.0084	    9.0854	    3.4462	  -32.4638	
 -510.0000	6.038E-11	2.478E-11	2.467E+6	1.197E+6	  -20.0059	    9.0889	    3.4570	  -32.4294	
 -520.0000	6.007E-11	2.477E-11	2.475E+6	1.199E+6	  -20.0033	    9.1535	    3.4592	  -32.3780	
 -530.0000	5.999E-11	2.477E-11	2.481E+6	1.196E+6	  -20.0033	    9.1085	    3.4665	  -32.3877	
 -540.0000	6.037E-11	2.466E-11	2.488E+6	1.196E+6	  -20.0008	    9.1273	    3.4788	  -32.3381	
 -550.0000	6.038E-11	2.477E-11	2.495E+6	1.201E+6	  -20.0008	    9.1597	    3.4696	  -32.3428	
 -560.0000	6.008E-11	2.468E-11	2.494E+6	1.194E+6	  -19.9982	    9.1597	    3.4532	  -32.3916	
 -570.0000	5.992E-11	2.468E-11	2.491E+6	1.195E+6	  -20.0008	    9.1664	    3.4908	  -32.2755	
 -580.0000	6.031E-11	2.466E-11	2.484E+6	1.199E+6	  -20.0008	    9.1605	    3.4861	  -32.2936	
 -590.0000	6.023E-11	2.471E-11	2.493E+6	1.201E+6	  -20.0033	    9.1403	    3.4858	  -32.3085	
 -600.0000	6.016E-11	2.468E-11	2.469E+6	1.194E+6	  -20.0033	    9.1702	    3.4791	  -32.3074	
 -610.0000	6.033E-11	2.467E-11	2.487E+6	1.197E+6	  -20.0059	    9.1443	    3.4614	  -32.3778	
 -620.0000	5.981E-11	2.468E-11	2.475E+6	1.199E+6	  -20.0059	    9.1592	    3.4681	  -32.3478	
 -630.0000	6.035E-11	2.467E-11	2.492E+6	1.196E+6	  -20.0033	    9.1353	    3.4693	  -32.3606	
 -640.0000	6.009E-11	2.467E-11	2.473E+6	1.195E+6	  -20.0033	    9.1347	    3.4573	  -32.3967	
 -650.0000	6.000E-11	2.467E-11	2.474E+6	1.200E+6	  -20.0008	    9.1170	    3.4646	  -32.3874	
 -660.0000	6.019E-11	2.467E-11	2.490E+6	1.199E+6	  -19.9982	    9.1217	    3.4655	  -32.3813	
 -670.0000	6.006E-11	2.468E-11	2.478E+6	1.197E+6	  -19.9931	    9.1331	    3.4560	  -32.4015	
 -680.0000	6.017E-11	2.467E-11	2.496E+6	1.195E+6	  -19.9957	    9.1078	    3.4538	  -32.4257	
 -690.0000	0.000E+0	0.000E+0	0.000E+0	0.000E+0	    0.0000	    0.0000	    0.0000	    0.0000	
