36696_039_PSS_XX_HM
Date/Time: 9/14/2021 5:22:09 PM
Sensor Name: 36696_039_PSS_XX_HM
Type: P
Annealing Status: 20 minutes
Environment: -20C
Tester: Eric Spencer
Notes: Irradiated to 1.1e15 at RINSC

Time Delay per Ramp Step (s): 1.000

CV Time Delay per Measurement (s) :0.500

AC Voltage (V): 0.500

Current Number of measurements per voltage: 4.000

IV Time Delay per Measurement (s) :0.500


BiasVoltage	Bias Current_Avg	Bias Current_0	Bias Current_1	Bias Current_2	Bias Current_3	Temperature	Air_Temp	Humidity	Dewpoint	
  -10.0000	-3.4000E-6	-3.4000E-6	-3.4000E-6	-3.4000E-6	-3.4000E-6	  -19.9000	   25.7628	    1.7852	    0.0000	
  -20.0000	-4.6200E-6	-4.6200E-6	-4.6200E-6	-4.6200E-6	-4.6200E-6	  -19.9000	   25.7628	    1.7852	    0.0000	
  -30.0000	-5.5800E-6	-5.5800E-6	-5.5800E-6	-5.5800E-6	-5.5800E-6	  -19.9000	   25.7628	    1.7852	    0.0000	
  -40.0000	-6.4000E-6	-6.4000E-6	-6.4000E-6	-6.4000E-6	-6.4000E-6	  -19.9000	   25.7628	    1.7852	    0.0000	
  -50.0000	-7.1400E-6	-7.1400E-6	-7.1400E-6	-7.1400E-6	-7.1400E-6	  -19.9000	   25.7628	    1.7852	    0.0000	
  -60.0000	-7.8100E-6	-7.8100E-6	-7.8100E-6	-7.8100E-6	-7.8100E-6	  -19.9000	   25.7628	    1.7852	    0.0000	
  -70.0000	-8.4400E-6	-8.4400E-6	-8.4400E-6	-8.4400E-6	-8.4400E-6	  -19.9000	   25.7628	    1.7852	    0.0000	
  -80.0000	-9.0300E-6	-9.0300E-6	-9.0300E-6	-9.0300E-6	-9.0300E-6	  -19.9000	   25.7628	    1.7852	    0.0000	
  -90.0000	-9.5800E-6	-9.5800E-6	-9.5800E-6	-9.5800E-6	-9.5800E-6	  -19.9000	   25.7628	    1.7852	    0.0000	
 -100.0000	-1.0120E-5	-1.0120E-5	-1.0120E-5	-1.0120E-5	-1.0120E-5	  -19.9000	   25.7628	    1.7852	    0.0000	
 -110.0000	-1.0630E-5	-1.0630E-5	-1.0630E-5	-1.0630E-5	-1.0630E-5	  -19.9000	   25.7628	    1.7852	    0.0000	
 -120.0000	-1.1130E-5	-1.1130E-5	-1.1130E-5	-1.1130E-5	-1.1130E-5	  -19.9000	   25.7628	    1.7852	    0.0000	
 -130.0000	-1.1600E-5	-1.1600E-5	-1.1600E-5	-1.1600E-5	-1.1600E-5	  -19.9000	   25.7628	    1.7852	    0.0000	
 -140.0000	-1.2060E-5	-1.2060E-5	-1.2060E-5	-1.2060E-5	-1.2060E-5	  -19.9000	   25.7628	    1.7852	    0.0000	
 -150.0000	-1.2510E-5	-1.2510E-5	-1.2510E-5	-1.2510E-5	-1.2510E-5	  -19.9000	   25.7628	    1.7852	    0.0000	
 -160.0000	-1.2950E-5	-1.2950E-5	-1.2950E-5	-1.2950E-5	-1.2950E-5	  -19.9000	   25.7628	    1.7852	    0.0000	
 -170.0000	-1.3380E-5	-1.3380E-5	-1.3380E-5	-1.3380E-5	-1.3380E-5	  -19.9000	   25.7628	    1.7852	    0.0000	
 -180.0000	-1.3800E-5	-1.3800E-5	-1.3800E-5	-1.3800E-5	-1.3800E-5	  -19.9000	   25.7628	    1.7852	    0.0000	
 -190.0000	-1.4210E-5	-1.4210E-5	-1.4210E-5	-1.4210E-5	-1.4210E-5	  -19.9000	   25.7628	    1.7852	    0.0000	
 -200.0000	-1.4610E-5	-1.4610E-5	-1.4610E-5	-1.4610E-5	-1.4610E-5	  -19.9000	   25.7628	    1.7852	    0.0000	
 -210.0000	-1.5010E-5	-1.5010E-5	-1.5010E-5	-1.5010E-5	-1.5010E-5	  -19.9000	   25.7628	    1.7852	    0.0000	
 -220.0000	-1.5390E-5	-1.5390E-5	-1.5390E-5	-1.5390E-5	-1.5390E-5	  -19.9000	   25.7628	    1.7852	    0.0000	
 -230.0000	-1.5780E-5	-1.5780E-5	-1.5780E-5	-1.5780E-5	-1.5780E-5	  -19.9000	   25.7628	    1.7852	    0.0000	
 -240.0000	-1.6150E-5	-1.6150E-5	-1.6150E-5	-1.6150E-5	-1.6150E-5	  -19.9000	   25.7628	    1.7852	    0.0000	
 -250.0000	-1.6520E-5	-1.6520E-5	-1.6520E-5	-1.6520E-5	-1.6520E-5	  -19.9000	   25.7628	    1.7852	    0.0000	
 -260.0000	-1.6880E-5	-1.6880E-5	-1.6880E-5	-1.6880E-5	-1.6880E-5	  -19.9000	   25.7628	    1.7852	    0.0000	
 -270.0000	-1.7240E-5	-1.7240E-5	-1.7240E-5	-1.7240E-5	-1.7240E-5	  -19.9000	   25.7628	    1.7852	    0.0000	
 -280.0000	-1.7590E-5	-1.7590E-5	-1.7590E-5	-1.7590E-5	-1.7590E-5	  -19.9000	   25.7628	    1.7852	    0.0000	
 -290.0000	-1.7940E-5	-1.7940E-5	-1.7940E-5	-1.7940E-5	-1.7940E-5	  -19.9000	   25.7628	    1.7852	    0.0000	
 -300.0000	-1.8290E-5	-1.8290E-5	-1.8290E-5	-1.8290E-5	-1.8290E-5	  -19.9000	   25.7628	    1.7852	    0.0000	
 -310.0000	-1.8620E-5	-1.8620E-5	-1.8620E-5	-1.8620E-5	-1.8620E-5	  -19.9000	   25.7628	    1.7852	    0.0000	
 -320.0000	-1.8960E-5	-1.8960E-5	-1.8960E-5	-1.8960E-5	-1.8960E-5	  -19.9000	   25.7628	    1.7852	    0.0000	
 -330.0000	-1.9280E-5	-1.9280E-5	-1.9280E-5	-1.9280E-5	-1.9280E-5	  -19.9000	   25.7628	    1.7852	    0.0000	
 -340.0000	-1.9610E-5	-1.9610E-5	-1.9610E-5	-1.9610E-5	-1.9610E-5	  -19.9000	   25.7628	    1.7852	    0.0000	
 -350.0000	-1.9920E-5	-1.9920E-5	-1.9920E-5	-1.9920E-5	-1.9920E-5	  -19.9000	   25.7628	    1.7852	    0.0000	
 -360.0000	-2.0240E-5	-2.0240E-5	-2.0240E-5	-2.0240E-5	-2.0240E-5	  -19.9000	   25.7628	    1.7852	    0.0000	
 -370.0000	-2.0550E-5	-2.0550E-5	-2.0550E-5	-2.0550E-5	-2.0550E-5	  -19.9000	   25.7628	    1.7852	    0.0000	
 -380.0000	-2.0860E-5	-2.0860E-5	-2.0860E-5	-2.0860E-5	-2.0860E-5	  -19.9000	   25.7628	    1.7852	    0.0000	
 -390.0000	-2.1150E-5	-2.1150E-5	-2.1150E-5	-2.1150E-5	-2.1150E-5	  -19.9000	   25.7628	    1.7852	    0.0000	
 -400.0000	-2.1430E-5	-2.1430E-5	-2.1430E-5	-2.1430E-5	-2.1430E-5	  -19.9000	   25.7628	    1.7852	    0.0000	
 -410.0000	-2.1730E-5	-2.1730E-5	-2.1730E-5	-2.1730E-5	-2.1730E-5	  -19.9000	   25.7628	    1.7852	    0.0000	
 -420.0000	-2.2010E-5	-2.2010E-5	-2.2010E-5	-2.2010E-5	-2.2010E-5	  -19.9000	   25.7628	    1.7852	    0.0000	
 -430.0000	-2.2300E-5	-2.2300E-5	-2.2300E-5	-2.2300E-5	-2.2300E-5	  -19.9000	   25.7628	    1.7852	    0.0000	
 -440.0000	-2.2560E-5	-2.2560E-5	-2.2560E-5	-2.2560E-5	-2.2560E-5	  -19.9000	   25.7628	    1.7852	    0.0000	
 -450.0000	-2.2820E-5	-2.2820E-5	-2.2820E-5	-2.2820E-5	-2.2820E-5	  -19.9000	   25.7628	    1.7852	    0.0000	
 -460.0000	-2.3080E-5	-2.3080E-5	-2.3080E-5	-2.3080E-5	-2.3080E-5	  -19.9000	   25.7628	    1.7852	    0.0000	
 -470.0000	-2.3340E-5	-2.3340E-5	-2.3340E-5	-2.3340E-5	-2.3340E-5	  -19.9000	   25.7628	    1.7852	    0.0000	
 -480.0000	-2.3580E-5	-2.3580E-5	-2.3580E-5	-2.3580E-5	-2.3580E-5	  -19.9000	   25.7628	    1.7852	    0.0000	
 -490.0000	-2.3820E-5	-2.3820E-5	-2.3820E-5	-2.3820E-5	-2.3820E-5	  -19.9000	   25.7628	    1.7852	    0.0000	
 -500.0000	-2.4050E-5	-2.4050E-5	-2.4050E-5	-2.4050E-5	-2.4050E-5	  -19.9000	   25.7628	    1.7852	    0.0000	
 -510.0000	-2.4290E-5	-2.4290E-5	-2.4290E-5	-2.4290E-5	-2.4290E-5	  -19.9000	   25.7628	    1.7852	    0.0000	
 -520.0000	-2.4510E-5	-2.4510E-5	-2.4510E-5	-2.4510E-5	-2.4510E-5	  -19.9000	   25.7628	    1.7852	    0.0000	
 -530.0000	-2.4730E-5	-2.4730E-5	-2.4730E-5	-2.4730E-5	-2.4730E-5	  -19.9000	   25.7628	    1.7852	    0.0000	
 -540.0000	-2.4950E-5	-2.4950E-5	-2.4950E-5	-2.4950E-5	-2.4950E-5	  -19.9000	   25.7628	    1.7852	    0.0000	
 -550.0000	-2.5160E-5	-2.5160E-5	-2.5160E-5	-2.5160E-5	-2.5160E-5	  -19.9000	   25.7628	    1.7852	    0.0000	
 -560.0000	-2.5360E-5	-2.5360E-5	-2.5360E-5	-2.5360E-5	-2.5360E-5	  -19.9000	   25.7628	    1.7852	    0.0000	
 -570.0000	-2.5570E-5	-2.5570E-5	-2.5570E-5	-2.5570E-5	-2.5570E-5	  -19.9000	   25.7628	    1.7852	    0.0000	
 -580.0000	-2.5770E-5	-2.5770E-5	-2.5770E-5	-2.5770E-5	-2.5770E-5	  -19.9000	   25.7628	    1.7852	    0.0000	
 -590.0000	-2.5970E-5	-2.5970E-5	-2.5970E-5	-2.5970E-5	-2.5970E-5	  -19.9000	   25.7628	    1.7852	    0.0000	
 -600.0000	-2.6160E-5	-2.6160E-5	-2.6160E-5	-2.6160E-5	-2.6160E-5	  -19.9000	   25.7628	    1.7852	    0.0000	
 -610.0000	-2.6350E-5	-2.6350E-5	-2.6350E-5	-2.6350E-5	-2.6350E-5	  -19.9000	   25.7628	    1.7852	    0.0000	
 -620.0000	-2.6540E-5	-2.6540E-5	-2.6540E-5	-2.6540E-5	-2.6540E-5	  -19.9000	   25.7628	    1.7852	    0.0000	
 -630.0000	-2.6720E-5	-2.6720E-5	-2.6720E-5	-2.6720E-5	-2.6720E-5	  -19.9000	   25.7628	    1.7852	    0.0000	
 -640.0000	-2.6890E-5	-2.6890E-5	-2.6890E-5	-2.6890E-5	-2.6890E-5	  -19.9000	   25.7628	    1.7852	    0.0000	
 -650.0000	-2.7060E-5	-2.7060E-5	-2.7060E-5	-2.7060E-5	-2.7060E-5	  -19.9000	   25.7628	    1.7852	    0.0000	
 -660.0000	-2.7240E-5	-2.7240E-5	-2.7240E-5	-2.7240E-5	-2.7240E-5	  -19.9000	   25.7628	    1.7852	    0.0000	
 -670.0000	-2.7410E-5	-2.7410E-5	-2.7410E-5	-2.7410E-5	-2.7410E-5	  -19.9000	   25.7628	    1.7852	    0.0000	
 -680.0000	-2.7570E-5	-2.7570E-5	-2.7570E-5	-2.7570E-5	-2.7570E-5	  -19.9000	   25.7628	    1.7852	    0.0000	
 -690.0000	-2.7730E-5	-2.7730E-5	-2.7730E-5	-2.7730E-5	-2.7730E-5	  -19.9000	   25.7628	    1.7852	    0.0000	
 -700.0000	-2.7890E-5	-2.7890E-5	-2.7890E-5	-2.7890E-5	-2.7890E-5	  -19.9000	   25.7628	    1.7852	    0.0000	
 -710.0000	-2.8050E-5	-2.8050E-5	-2.8050E-5	-2.8050E-5	-2.8050E-5	  -19.9000	   25.7628	    1.7852	    0.0000	
 -720.0000	-2.8210E-5	-2.8210E-5	-2.8210E-5	-2.8210E-5	-2.8210E-5	  -19.9000	   25.7628	    1.7852	    0.0000	
 -730.0000	-2.8360E-5	-2.8360E-5	-2.8360E-5	-2.8360E-5	-2.8360E-5	  -19.9000	   25.7628	    1.7852	    0.0000	
 -740.0000	-2.8510E-5	-2.8510E-5	-2.8510E-5	-2.8510E-5	-2.8510E-5	  -19.9000	   25.7628	    1.7852	    0.0000	
 -750.0000	-2.8650E-5	-2.8650E-5	-2.8650E-5	-2.8650E-5	-2.8650E-5	  -19.9000	   25.7628	    1.7852	    0.0000	
 -760.0000	-2.8810E-5	-2.8810E-5	-2.8810E-5	-2.8810E-5	-2.8810E-5	  -19.9000	   25.7628	    1.7852	    0.0000	
 -770.0000	-2.8960E-5	-2.8960E-5	-2.8960E-5	-2.8960E-5	-2.8960E-5	  -19.9000	   25.7628	    1.7852	    0.0000	
 -780.0000	-2.9090E-5	-2.9090E-5	-2.9090E-5	-2.9090E-5	-2.9090E-5	  -19.9000	   25.7628	    1.7852	    0.0000	
 -790.0000	-2.9240E-5	-2.9240E-5	-2.9240E-5	-2.9240E-5	-2.9240E-5	  -19.9000	   25.7628	    1.7852	    0.0000	
 -800.0000	-2.9380E-5	-2.9380E-5	-2.9380E-5	-2.9380E-5	-2.9380E-5	  -19.9000	   25.7628	    1.7852	    0.0000	
 -810.0000	-2.9520E-5	-2.9520E-5	-2.9520E-5	-2.9520E-5	-2.9520E-5	  -19.9000	   25.7628	    1.7852	    0.0000	
 -820.0000	-2.9660E-5	-2.9660E-5	-2.9660E-5	-2.9660E-5	-2.9660E-5	  -19.9000	   25.7628	    1.7852	    0.0000	
 -830.0000	-2.9790E-5	-2.9790E-5	-2.9790E-5	-2.9790E-5	-2.9790E-5	  -19.9000	   25.7628	    1.7852	    0.0000	
 -840.0000	-2.9930E-5	-2.9930E-5	-2.9930E-5	-2.9930E-5	-2.9930E-5	  -19.9000	   25.7628	    1.7852	    0.0000	
 -850.0000	-3.0070E-5	-3.0070E-5	-3.0070E-5	-3.0070E-5	-3.0070E-5	  -19.9000	   25.7628	    1.7852	    0.0000	
 -860.0000	-3.0200E-5	-3.0200E-5	-3.0200E-5	-3.0200E-5	-3.0200E-5	  -19.9000	   25.7628	    1.7852	    0.0000	
 -870.0000	-3.0330E-5	-3.0330E-5	-3.0330E-5	-3.0330E-5	-3.0330E-5	  -19.9000	   25.7628	    1.7852	    0.0000	
 -880.0000	-3.0460E-5	-3.0460E-5	-3.0460E-5	-3.0460E-5	-3.0460E-5	  -19.9000	   25.7628	    1.7852	    0.0000	
 -890.0000	-3.0580E-5	-3.0580E-5	-3.0580E-5	-3.0580E-5	-3.0580E-5	  -19.9000	   25.7628	    1.7852	    0.0000	
 -900.0000	-3.0740E-5	-3.0740E-5	-3.0740E-5	-3.0740E-5	-3.0740E-5	  -19.9000	   25.7628	    1.7852	    0.0000	
 -910.0000	-3.0870E-5	-3.0870E-5	-3.0870E-5	-3.0870E-5	-3.0870E-5	  -19.9000	   25.7628	    1.7852	    0.0000	
 -920.0000	-3.1000E-5	-3.1000E-5	-3.1000E-5	-3.1000E-5	-3.1000E-5	  -19.9000	   25.7628	    1.7852	    0.0000	
 -930.0000	-3.1130E-5	-3.1130E-5	-3.1130E-5	-3.1130E-5	-3.1130E-5	  -19.9000	   25.7628	    1.7852	    0.0000	
 -940.0000	-3.1260E-5	-3.1260E-5	-3.1260E-5	-3.1260E-5	-3.1260E-5	  -19.9000	   25.7628	    1.7852	    0.0000	
 -950.0000	-3.1380E-5	-3.1380E-5	-3.1380E-5	-3.1380E-5	-3.1380E-5	  -19.9000	   25.7628	    1.7852	    0.0000	
 -960.0000	-3.1510E-5	-3.1510E-5	-3.1510E-5	-3.1510E-5	-3.1510E-5	  -19.9000	   25.7628	    1.7852	    0.0000	
 -970.0000	-3.1650E-5	-3.1650E-5	-3.1650E-5	-3.1650E-5	-3.1650E-5	  -19.9000	   25.7628	    1.7852	    0.0000	
 -980.0000	-3.1790E-5	-3.1790E-5	-3.1790E-5	-3.1790E-5	-3.1790E-5	  -19.9000	   25.7628	    1.7852	    0.0000	
 -990.0000	-3.1920E-5	-3.1920E-5	-3.1920E-5	-3.1920E-5	-3.1920E-5	  -19.9000	   25.7628	    1.7852	    0.0000	
-1000.0000	-3.2060E-5	-3.2060E-5	-3.2060E-5	-3.2060E-5	-3.2060E-5	  -19.9000	   25.7628	    1.7852	    0.0000	
