GCD Test
Bias: 5000.000000
CV_N4789_20_UR_DIODE_GR_Irradiated_Annealed_60C_80min
Date/Time: 3/5/2022 3:36:56 PM
Sensor Name: DIODE
Type: P
Annealing Status: Irradiated and Annealed at 60C for 80 minutes
Environment: 0C
Tester: Andrew Kent

Time Delay per Ramp Step (s): 0.500

CV Time Delay per Measurement (s) :0.500

AC Voltage (V): 0.500

Current Number of measurements per voltage: 1.000

IV Time Delay per Measurement (s) :0.000


BiasVoltage	LCR_Cp_freq1000.0	LCR_Cp_freq10000.0	LCR_Rp_freq1000.0	LCR_Rp_freq10000.0	Temperature	Air_Temp	Humidity	Dewpoint	
  -10.0000	1.607E-10	4.042E-11	6.773E+5	2.904E+5	   -0.0026	   13.0737	   28.9627	   -4.5594	
  -20.0000	1.254E-10	4.079E-11	1.016E+6	3.809E+5	   -0.0077	   13.0741	   28.9671	   -4.5571	
  -30.0000	1.070E-10	3.975E-11	1.279E+6	4.564E+5	   -0.0077	   13.0827	   28.9832	   -4.5423	
  -40.0000	9.550E-11	3.851E-11	1.488E+6	5.199E+5	   -0.0051	   13.0749	   29.0054	   -4.5389	
  -50.0000	8.737E-11	3.710E-11	1.661E+6	5.803E+5	   -0.0000	   13.0829	   29.0085	   -4.5306	
  -60.0000	8.120E-11	3.588E-11	1.811E+6	6.335E+5	   -0.0077	   13.0829	   29.0164	   -4.5270	
  -70.0000	7.625E-11	3.462E-11	1.944E+6	6.863E+5	   -0.0051	   13.0716	   29.0114	   -4.5390	
  -80.0000	7.198E-11	3.341E-11	2.071E+6	7.378E+5	   -0.0026	   13.0629	   29.0373	   -4.5347	
  -90.0000	6.818E-11	3.222E-11	2.197E+6	7.892E+5	   -0.0077	   13.0677	   29.0332	   -4.5324	
 -100.0000	6.466E-11	3.093E-11	2.322E+6	8.471E+5	   -0.0102	   13.0739	   29.0525	   -4.5183	
 -110.0000	6.097E-11	2.951E-11	2.480E+6	9.200E+5	   -0.0102	   13.0688	   29.0708	   -4.5144	
 -120.0000	5.727E-11	2.804E-11	2.694E+6	1.020E+6	   -0.0102	   13.0719	   29.0939	   -4.5011	
 -130.0000	5.293E-11	2.653E-11	3.009E+6	1.172E+6	   -0.0077	   13.0719	   29.1214	   -4.4886	
 -140.0000	4.836E-11	2.516E-11	3.452E+6	1.408E+6	   -0.0102	   13.0633	   29.1259	   -4.4941	
 -150.0000	4.364E-11	2.412E-11	4.040E+6	1.742E+6	   -0.0051	   13.0622	   29.1373	   -4.4898	
 -160.0000	3.921E-11	2.338E-11	4.760E+6	2.191E+6	   -0.0026	   13.0569	   29.1376	   -4.4943	
 -170.0000	3.530E-11	2.285E-11	5.600E+6	2.774E+6	   -0.0051	   13.0559	   29.1610	   -4.4845	
 -180.0000	3.213E-11	2.251E-11	6.550E+6	3.437E+6	   -0.0051	   13.0494	   29.1818	   -4.4807	
 -190.0000	2.975E-11	2.227E-11	7.546E+6	4.165E+6	   -0.0026	   13.0582	   29.2103	   -4.4601	
 -200.0000	2.798E-11	2.211E-11	8.575E+6	4.945E+6	   -0.0026	   13.0477	   29.2087	   -4.4700	
 -220.0000	2.572E-11	2.190E-11	1.050E+7	6.435E+6	   -0.0026	   13.0537	   29.2144	   -4.4622	
 -240.0000	2.441E-11	2.179E-11	1.217E+7	7.769E+6	   -0.0051	   13.0522	   29.2318	   -4.4556	
 -260.0000	2.361E-11	2.172E-11	1.358E+7	8.918E+6	   -0.0026	   13.0527	   29.2483	   -4.4477	
 -280.0000	2.304E-11	2.167E-11	1.471E+7	9.930E+6	   -0.0000	   13.0532	   29.2710	   -4.4369	
 -300.0000	2.264E-11	2.163E-11	1.568E+7	1.076E+7	    0.0026	   13.0606	   29.3106	   -4.4127	
 -320.0000	2.235E-11	2.160E-11	1.644E+7	1.146E+7	    0.0026	   13.0554	   29.3292	   -4.4088	
 -340.0000	2.211E-11	2.158E-11	1.712E+7	1.208E+7	   -0.0000	   13.0464	   29.3261	   -4.4179	
 -360.0000	2.194E-11	2.156E-11	1.763E+7	1.259E+7	   -0.0000	   13.0466	   29.3374	   -4.4126	
 -380.0000	2.175E-11	2.154E-11	1.801E+7	1.302E+7	    0.0051	   13.0542	   29.3643	   -4.3940	
 -400.0000	2.164E-11	2.152E-11	1.828E+7	1.337E+7	    0.0051	   13.0471	   29.3703	   -4.3974	
 -440.0000	2.142E-11	2.150E-11	1.866E+7	1.395E+7	    0.0026	   13.0263	   29.3937	   -4.4049	
 -480.0000	2.126E-11	2.148E-11	1.868E+7	1.420E+7	   -0.0000	   13.0384	   29.3997	   -4.3917	
 -520.0000	2.111E-11	2.146E-11	1.854E+7	1.437E+7	    0.0026	   13.0502	   29.3991	   -4.3817	
 -560.0000	2.080E-11	2.140E-11	1.800E+7	1.419E+7	   -0.0000	   13.0537	   29.4086	   -4.3744	
 -600.0000	2.069E-11	2.139E-11	1.762E+7	1.412E+7	   -0.0026	   13.0562	   29.4190	   -4.3675	
 -640.0000	2.058E-11	2.138E-11	1.720E+7	1.394E+7	    0.0026	   13.0453	   29.4453	   -4.3651	
 -680.0000	2.047E-11	2.136E-11	1.669E+7	1.376E+7	   -0.0000	   13.0460	   29.4529	   -4.3611	
 -720.0000	2.035E-11	2.135E-11	1.605E+7	1.348E+7	    0.0026	   13.0457	   29.4503	   -4.3625	
 -760.0000	2.026E-11	2.133E-11	1.552E+7	1.312E+7	    0.0051	   13.0455	   29.4734	   -4.3523	
 -800.0000	2.015E-11	2.132E-11	1.488E+7	1.276E+7	    0.0077	   13.0361	   29.4747	   -4.3598	
 -840.0000	2.004E-11	2.130E-11	1.423E+7	1.237E+7	    0.0102	   13.0389	   29.4820	   -4.3542	
 -880.0000	1.996E-11	2.129E-11	1.356E+7	1.195E+7	    0.0128	   13.0456	   29.5019	   -4.3395	
 -920.0000	1.982E-11	2.127E-11	1.282E+7	1.140E+7	    0.0128	   13.0443	   29.4991	   -4.3419	
 -960.0000	1.974E-11	2.126E-11	1.213E+7	1.091E+7	    0.0102	   13.0391	   29.4927	   -4.3492	
-1000.0000	1.962E-11	2.124E-11	1.128E+7	1.030E+7	    0.0077	   13.0349	   29.4864	   -4.3556	
