GCD Test
Bias: 5000.000000
IV_N4789_20_UR_DIODE_GR_Irradiated_Annealed_60C_40min
Date/Time: 3/4/2022 11:39:01 AM
Sensor Name: DIODE
Type: P
Annealing Status: Irradiated and Annealed at 60C for 40 minutes
Environment: 0C
Tester: Andrew Kent

Time Delay per Ramp Step (s): 0.500

CV Time Delay per Measurement (s) :0.500

AC Voltage (V): 0.500

Current Number of measurements per voltage: 1.000

IV Time Delay per Measurement (s) :0.000


BiasVoltage	Total Current_Avg	Total Current_0	Bias Current_Avg	Bias Current_0	Temperature	Air_Temp	Humidity	Dewpoint	
  -10.0000	-1.6920E-5	-1.6920E-5	-1.331097E-5	-1.331097E-5	   -0.0026	   13.9566	   26.4987	   -4.9744	
  -20.0000	-2.5070E-5	-2.5070E-5	-1.909714E-5	-1.909714E-5	   -0.0000	   13.9774	   26.5585	   -4.9268	
  -30.0000	-3.0480E-5	-3.0480E-5	-2.313590E-5	-2.313590E-5	   -0.0000	   13.9774	   26.5585	   -4.9268	
  -40.0000	-3.5070E-5	-3.5070E-5	-2.658018E-5	-2.658018E-5	   -0.0051	   13.9661	   26.6221	   -4.9050	
  -50.0000	-3.9060E-5	-3.9060E-5	-2.959283E-5	-2.959283E-5	   -0.0077	   13.9655	   26.6543	   -4.8895	
  -60.0000	-4.2610E-5	-4.2610E-5	-3.240666E-5	-3.240666E-5	   -0.0077	   13.9655	   26.6543	   -4.8895	
  -70.0000	-4.5870E-5	-4.5870E-5	-3.503342E-5	-3.503342E-5	   -0.0051	   13.9618	   26.6977	   -4.8712	
  -80.0000	-4.9020E-5	-4.9020E-5	-3.750856E-5	-3.750856E-5	   -0.0051	   13.9765	   26.7157	   -4.8497	
  -90.0000	-5.1990E-5	-5.1990E-5	-3.970076E-5	-3.970076E-5	   -0.0051	   13.9765	   26.7157	   -4.8497	
 -100.0000	-5.4780E-5	-5.4780E-5	-4.189883E-5	-4.189883E-5	   -0.0077	   13.9768	   26.7505	   -4.8323	
 -110.0000	-5.7390E-5	-5.7390E-5	-4.401174E-5	-4.401174E-5	   -0.0051	   13.9858	   26.7786	   -4.8108	
 -120.0000	-6.0010E-5	-6.0010E-5	-4.595966E-5	-4.595966E-5	   -0.0051	   13.9858	   26.7786	   -4.8108	
 -130.0000	-6.2000E-5	-6.2000E-5	-4.759199E-5	-4.759199E-5	    0.0026	   13.9858	   26.7887	   -4.8058	
 -140.0000	-6.4000E-5	-6.4000E-5	-4.913301E-5	-4.913301E-5	   -0.0026	   13.9858	   26.7951	   -4.8058	
 -150.0000	-6.5910E-5	-6.5910E-5	-5.070026E-5	-5.070026E-5	   -0.0026	   13.9994	   26.7951	   -4.7909	
 -160.0000	-6.7470E-5	-6.7470E-5	-5.172774E-5	-5.172774E-5	   -0.0026	   13.9994	   26.7951	   -4.7909	
 -170.0000	-6.8840E-5	-6.8840E-5	-5.276301E-5	-5.276301E-5	   -0.0026	   14.0034	   26.8251	   -4.7727	
 -180.0000	-7.0090E-5	-7.0090E-5	-5.351627E-5	-5.351627E-5	   -0.0000	   13.9905	   26.8352	   -4.7788	
 -190.0000	-7.1140E-5	-7.1140E-5	-5.439017E-5	-5.439017E-5	   -0.0000	   13.9905	   26.8352	   -4.7788	
 -200.0000	-7.2230E-5	-7.2230E-5	-5.497645E-5	-5.497645E-5	   -0.0000	   13.9981	   26.8457	   -4.7672	
 -220.0000	-7.3940E-5	-7.3940E-5	-5.639076E-5	-5.639076E-5	    0.0026	   13.9756	   26.8672	   -4.7758	
 -240.0000	-7.5860E-5	-7.5860E-5	-5.760753E-5	-5.760753E-5	    0.0026	   13.9756	   26.8672	   -4.7758	
 -260.0000	-7.7170E-5	-7.7170E-5	-5.843452E-5	-5.843452E-5	    0.0051	   13.9833	   26.8748	   -4.7656	
 -280.0000	-7.8810E-5	-7.8810E-5	-5.957027E-5	-5.957027E-5	   -0.0000	   13.9849	   26.8912	   -4.7561	
 -300.0000	-8.0240E-5	-8.0240E-5	-6.052833E-5	-6.052833E-5	   -0.0000	   13.9849	   26.8912	   -4.7561	
 -320.0000	-8.1400E-5	-8.1400E-5	-6.138186E-5	-6.138186E-5	    0.0051	   13.9813	   26.9016	   -4.7541	
 -340.0000	-8.2740E-5	-8.2740E-5	-6.233043E-5	-6.233043E-5	    0.0026	   13.9728	   26.9149	   -4.7548	
 -360.0000	-8.4000E-5	-8.4000E-5	-6.311438E-5	-6.311438E-5	    0.0026	   13.9728	   26.9149	   -4.7548	
 -380.0000	-8.5190E-5	-8.5190E-5	-6.382869E-5	-6.382869E-5	    0.0026	   13.9728	   26.9209	   -4.7518	
 -400.0000	-8.6730E-5	-8.6730E-5	-6.486713E-5	-6.486713E-5	    0.0026	   13.9728	   26.9209	   -4.7518	
 -440.0000	-8.9130E-5	-8.9130E-5	-6.655918E-5	-6.655918E-5	    0.0026	   13.9857	   26.9447	   -4.7292	
 -480.0000	-9.1630E-5	-9.1630E-5	-6.833265E-5	-6.833265E-5	    0.0077	   13.9857	   26.9614	   -4.7209	
 -520.0000	-9.4240E-5	-9.4240E-5	-7.008199E-5	-7.008199E-5	    0.0026	   13.9652	   26.9652	   -4.7366	
 -560.0000	-9.6640E-5	-9.6640E-5	-7.195417E-5	-7.195417E-5	    0.0026	   13.9652	   26.9652	   -4.7366	
 -600.0000	-9.9330E-5	-9.9330E-5	-7.418948E-5	-7.418948E-5	   -0.0026	   13.9700	   26.9769	   -4.7268	
 -640.0000	-1.0200E-4	-1.0200E-4	-7.578693E-5	-7.578693E-5	   -0.0051	   13.9676	   26.9848	   -4.7250	
 -680.0000	-1.0490E-4	-1.0490E-4	-7.805882E-5	-7.805882E-5	   -0.0051	   13.9676	   26.9848	   -4.7250	
 -720.0000	-1.0750E-4	-1.0750E-4	-8.003990E-5	-8.003990E-5	   -0.0000	   13.9458	   27.0047	   -4.7339	
 -760.0000	-1.1100E-4	-1.1100E-4	-8.261044E-5	-8.261044E-5	   -0.0051	   13.9442	   27.0142	   -4.7306	
 -800.0000	-1.1400E-4	-1.1400E-4	-8.502504E-5	-8.502504E-5	   -0.0051	   13.9442	   27.0142	   -4.7306	
 -840.0000	-1.1760E-4	-1.1760E-4	-8.786300E-5	-8.786300E-5	   -0.0051	   13.9320	   27.0234	   -4.7367	
 -880.0000	-1.2150E-4	-1.2150E-4	-9.062963E-5	-9.062963E-5	    0.0026	   13.9239	   27.0367	   -4.7371	
 -920.0000	-1.2540E-4	-1.2540E-4	-9.364178E-5	-9.364178E-5	    0.0026	   13.9239	   27.0367	   -4.7371	
 -960.0000	-1.2980E-4	-1.2980E-4	-9.695077E-5	-9.695077E-5	   -0.0026	   13.9288	   27.0607	   -4.7211	
-1000.0000	-1.3410E-4	-1.3410E-4	-1.005004E-4	-1.005004E-4	   -0.0026	   13.9126	   27.0715	   -4.7298	
