GCD Test
Bias: 5000.000000
CV_N4789_20_LL_DIODEQUARTER_GR_Irradiated_Annealed_60C_40min
Date/Time: 3/4/2022 11:35:25 AM
Sensor Name: DIODEQUARTER
Type: P
Annealing Status: Irradiated and Annealed at 60C for 40 minutes
Environment: 0C
Tester: Andrew Kent

Time Delay per Ramp Step (s): 0.500

CV Time Delay per Measurement (s) :0.500

AC Voltage (V): 0.500

Current Number of measurements per voltage: 1.000

IV Time Delay per Measurement (s) :0.000


BiasVoltage	LCR_Cp_freq1000.0	LCR_Cp_freq10000.0	LCR_Rp_freq1000.0	LCR_Rp_freq10000.0	Temperature	Air_Temp	Humidity	Dewpoint	
  -10.0000	1.228E-11	1.838E-12	8.845E+6	3.636E+6	   -0.0102	   14.2131	   26.7486	   -4.6308	
  -20.0000	9.633E-12	1.920E-12	1.255E+7	4.467E+6	   -0.0026	   14.1927	   26.7691	   -4.6381	
  -30.0000	8.098E-12	1.882E-12	1.565E+7	5.241E+6	   -0.0051	   14.1708	   26.7970	   -4.6432	
  -40.0000	7.068E-12	1.802E-12	1.827E+7	6.002E+6	   -0.0051	   14.1842	   26.8425	   -4.6092	
  -50.0000	6.306E-12	1.728E-12	2.066E+7	6.711E+6	   -0.0077	   14.1829	   26.8571	   -4.6032	
  -60.0000	5.725E-12	1.651E-12	2.279E+7	7.396E+6	   -0.0026	   14.1799	   26.8776	   -4.5956	
  -70.0000	5.255E-12	1.577E-12	2.483E+7	8.050E+6	   -0.0077	   14.1825	   26.9096	   -4.5777	
  -80.0000	4.868E-12	1.504E-12	2.671E+7	8.704E+6	   -0.0102	   14.1693	   26.9405	   -4.5737	
  -90.0000	4.548E-12	1.436E-12	2.842E+7	9.314E+6	   -0.0051	   14.1693	   26.9662	   -4.5612	
 -100.0000	4.262E-12	1.362E-12	3.026E+7	9.956E+6	   -0.0077	   14.1460	   26.9722	   -4.5782	
 -110.0000	3.993E-12	1.286E-12	3.221E+7	1.063E+7	   -0.0077	   14.1467	   26.9972	   -4.5653	
 -120.0000	3.778E-12	1.220E-12	3.430E+7	1.131E+7	   -0.0077	   14.1463	   26.9987	   -4.5649	
 -130.0000	3.526E-12	1.134E-12	3.675E+7	1.223E+7	   -0.0051	   14.1307	   27.0190	   -4.5684	
 -140.0000	3.270E-12	1.045E-12	4.000E+7	1.340E+7	   -0.0077	   14.1430	   27.0370	   -4.5490	
 -150.0000	3.002E-12	9.554E-13	4.419E+7	1.503E+7	   -0.0077	   14.1266	   27.0531	   -4.5552	
 -160.0000	2.737E-12	8.784E-13	4.970E+7	1.713E+7	   -0.0077	   14.1368	   27.0626	   -4.5418	
 -170.0000	2.470E-12	8.132E-13	5.645E+7	1.981E+7	   -0.0051	   14.1262	   27.0930	   -4.5360	
 -180.0000	2.206E-12	7.622E-13	6.438E+7	2.309E+7	   -0.0077	   14.1197	   27.1094	   -4.5335	
 -190.0000	1.970E-12	7.244E-13	7.309E+7	2.685E+7	   -0.0051	   14.1000	   27.1259	   -4.5424	
 -200.0000	1.766E-12	6.960E-13	8.246E+7	3.104E+7	   -0.0077	   14.0878	   27.1490	   -4.5417	
 -220.0000	1.437E-12	6.590E-13	1.039E+8	4.011E+7	   -0.0077	   14.1105	   27.1613	   -4.5162	
 -240.0000	1.224E-12	6.373E-13	1.273E+8	4.876E+7	   -0.0026	   14.0802	   27.1809	   -4.5326	
 -260.0000	1.087E-12	6.253E-13	1.500E+8	5.678E+7	    0.0051	   14.0781	   27.1739	   -4.5378	
 -280.0000	1.003E-12	6.178E-13	1.722E+8	6.303E+7	    0.0051	   14.0879	   27.1670	   -4.5328	
 -300.0000	9.429E-13	6.125E-13	1.908E+8	6.862E+7	   -0.0000	   14.0743	   27.1743	   -4.5410	
 -320.0000	9.018E-13	6.092E-13	2.069E+8	7.286E+7	   -0.0000	   14.0691	   27.1885	   -4.5384	
 -340.0000	7.979E-13	5.967E-13	2.151E+8	7.803E+7	   -0.0000	   14.0710	   27.1935	   -4.5344	
 -360.0000	7.765E-13	5.950E-13	2.264E+8	8.063E+7	   -0.0026	   14.0745	   27.1958	   -4.5303	
 -380.0000	7.631E-13	5.935E-13	2.356E+8	8.312E+7	   -0.0051	   14.0683	   27.1967	   -4.5352	
 -400.0000	7.466E-13	5.922E-13	2.437E+8	8.477E+7	   -0.0026	   14.0738	   27.2049	   -4.5264	
 -440.0000	7.291E-13	5.903E-13	2.560E+8	8.811E+7	    0.0026	   14.0666	   27.2075	   -4.5313	
 -480.0000	7.171E-13	5.887E-13	2.582E+8	8.983E+7	   -0.0000	   14.0538	   27.2052	   -4.5434	
 -520.0000	7.099E-13	5.872E-13	2.619E+8	9.074E+7	   -0.0000	   14.0467	   27.2179	   -4.5434	
 -560.0000	6.986E-13	5.863E-13	2.583E+8	9.160E+7	   -0.0000	   14.0467	   27.2160	   -4.5443	
 -600.0000	6.883E-13	5.861E-13	2.513E+8	9.155E+7	   -0.0000	   14.0289	   27.2157	   -4.5598	
 -640.0000	6.849E-13	5.846E-13	2.473E+8	9.116E+7	   -0.0026	   14.0286	   27.2214	   -4.5573	
 -680.0000	6.822E-13	5.838E-13	2.396E+8	9.127E+7	   -0.0026	   14.0205	   27.2106	   -4.5694	
 -720.0000	6.704E-13	5.829E-13	2.308E+8	9.012E+7	   -0.0000	   14.0284	   27.2034	   -4.5661	
 -760.0000	6.716E-13	5.825E-13	2.215E+8	8.922E+7	   -0.0000	   14.0383	   27.1806	   -4.5687	
 -800.0000	6.616E-13	5.817E-13	2.119E+8	8.809E+7	   -0.0000	   14.0277	   27.1790	   -4.5786	
 -840.0000	6.631E-13	5.807E-13	2.016E+8	8.660E+7	    0.0026	   14.0162	   27.1562	   -4.5996	
 -880.0000	6.550E-13	5.804E-13	1.914E+8	8.511E+7	   -0.0000	   14.0069	   27.1524	   -4.6094	
 -920.0000	6.442E-13	5.789E-13	1.801E+8	8.343E+7	   -0.0000	   14.0197	   27.1423	   -4.6034	
 -960.0000	6.437E-13	5.781E-13	1.686E+8	8.097E+7	   -0.0000	   14.0087	   27.1322	   -4.6177	
-1000.0000	6.317E-13	5.770E-13	1.575E+8	7.865E+7	    0.0026	   14.0056	   27.1271	   -4.6228	
