GCD Test
Bias: 5000.000000
CV_D0_CO138_LargeDiode_GRConnected_Irradiated_200min
Date/Time: 8/24/2021 3:00:09 PM
Sensor Name: CO138
Type: N
Annealing Status: Irradiated, Annealed at 60C for 400 minutes
Environment: -20C
Tester: Andrew Kent

Time Delay per Ramp Step (s): 0.500

CV Time Delay per Measurement (s) :0.500

AC Voltage (V): 0.500

Current Number of measurements per voltage: 4.000

IV Time Delay per Measurement (s) :0.000


BiasVoltage	LCR_Cp_freq1000.0	LCR_Cp_freq10000.0	LCR_Rp_freq1000.0	LCR_Rp_freq10000.0	Temperature	Air_Temp	Humidity	Dewpoint	
    1.0000	5.984E-11	1.906E-11	3.119E+6	1.672E+6	  -20.0109	   10.0274	    2.9497	  -33.4069	
    2.0000	6.004E-11	1.904E-11	3.117E+6	1.687E+6	  -20.0211	   10.0365	    2.9589	  -33.3691	
    3.0000	5.989E-11	1.904E-11	3.120E+6	1.687E+6	  -20.0389	   10.0123	    2.9472	  -33.4259	
    4.0000	6.006E-11	1.905E-11	3.116E+6	1.680E+6	  -20.0364	    9.9954	    2.9450	  -33.4451	
    5.0000	5.985E-11	1.905E-11	3.119E+6	1.682E+6	  -20.0389	   10.0336	    2.9371	  -33.4464	
    6.0000	5.995E-11	1.907E-11	3.117E+6	1.665E+6	  -20.0211	   10.0300	    2.9358	  -33.4532	
    7.0000	6.028E-11	1.907E-11	3.111E+6	1.667E+6	  -20.0059	    9.9536	    2.9314	  -33.5206	
    8.0000	6.045E-11	1.907E-11	3.108E+6	1.669E+6	  -19.9880	    9.9665	    2.9279	  -33.5239	
    9.0000	6.043E-11	1.907E-11	3.108E+6	1.667E+6	  -19.9931	    9.9890	    2.9127	  -33.5614	
   10.0000	6.057E-11	1.906E-11	3.106E+6	1.668E+6	  -19.9702	    9.9963	    2.9228	  -33.5212	
   20.0000	6.049E-11	1.906E-11	3.108E+6	1.669E+6	  -19.9753	    9.9566	    2.9292	  -33.5263	
   30.0000	6.038E-11	1.905E-11	3.109E+6	1.678E+6	  -19.9728	    9.8995	    2.9140	  -33.6179	
   40.0000	5.986E-11	1.906E-11	3.118E+6	1.677E+6	  -19.9906	    9.8715	    2.9203	  -33.6150	
   50.0000	5.985E-11	1.906E-11	3.118E+6	1.668E+6	  -20.0033	    9.8863	    2.9206	  -33.6038	
   60.0000	6.017E-11	1.905E-11	3.112E+6	1.679E+6	  -20.0262	    9.9593	    2.9197	  -33.5574	
   70.0000	5.854E-11	1.904E-11	3.204E+6	1.699E+6	  -20.0364	    9.9339	    2.9118	  -33.6022	
   80.0000	5.736E-11	1.904E-11	3.444E+6	1.732E+6	  -20.0237	    9.9060	    2.9029	  -33.6521	
   90.0000	5.560E-11	1.883E-11	3.817E+6	1.839E+6	  -20.0211	    9.9006	    2.8969	  -33.6768	
  100.0000	7.217E-11	1.936E-11	4.388E+6	2.010E+6	  -20.0008	    9.9409	    2.8922	  -33.6660	
  120.0000	3.624E-11	1.913E-11	7.086E+6	2.480E+6	  -20.0008	    9.9036	    2.8830	  -33.7237	
  140.0000	4.035E-11	1.881E-11	7.185E+6	2.908E+6	  -19.9982	    9.8593	    2.8849	  -33.7471	
  160.0000	3.592E-11	1.873E-11	8.718E+6	3.190E+6	  -19.9855	    9.8724	    2.8782	  -33.7616	
  180.0000	3.310E-11	1.864E-11	9.841E+6	3.479E+6	  -19.9753	    9.8774	    2.8836	  -33.7393	
  200.0000	3.200E-11	1.858E-11	1.048E+7	3.747E+6	  -19.9830	    9.8247	    2.8744	  -33.8074	
  220.0000	3.088E-11	1.853E-11	1.075E+7	3.968E+6	  -19.9982	    9.8594	    2.8719	  -33.7927	
  240.0000	3.018E-11	1.848E-11	1.155E+7	4.244E+6	  -20.0109	    9.8945	    2.8710	  -33.7722	
  260.0000	2.930E-11	1.844E-11	1.223E+7	4.453E+6	  -20.0033	    9.9676	    2.8662	  -33.7393	
  280.0000	2.846E-11	1.843E-11	1.250E+7	4.646E+6	  -20.0160	    9.9721	    2.8672	  -33.7329	
  300.0000	2.805E-11	1.838E-11	1.300E+7	4.895E+6	  -20.0237	    9.9838	    2.8526	  -33.7765	
  320.0000	2.790E-11	1.836E-11	1.390E+7	5.093E+6	  -20.0287	   10.0312	    2.8495	  -33.7556	
  340.0000	2.701E-11	1.834E-11	1.358E+7	5.366E+6	  -20.0211	    9.9333	    2.8520	  -33.8130	
  360.0000	2.709E-11	1.831E-11	1.536E+7	5.603E+6	  -20.0033	    9.9301	    2.8454	  -33.8389	
  380.0000	2.635E-11	1.828E-11	1.472E+7	5.816E+6	  -20.0033	    9.8892	    2.8460	  -33.8644	
  400.0000	2.595E-11	1.826E-11	1.580E+7	6.111E+6	  -19.9906	    9.8774	    2.8545	  -33.8420	
  420.0000	2.565E-11	1.824E-11	1.654E+7	6.383E+6	  -19.9779	    9.8584	    2.8454	  -33.8875	
  440.0000	2.509E-11	1.820E-11	1.667E+7	6.758E+6	  -19.9652	    9.9009	    2.8381	  -33.8846	
  460.0000	2.478E-11	1.819E-11	1.800E+7	7.020E+6	  -19.9677	    9.8548	    2.8441	  -33.8945	
  480.0000	2.435E-11	1.815E-11	1.819E+7	7.400E+6	  -19.9728	    9.8654	    2.8406	  -33.8997	
  500.0000	2.447E-11	1.814E-11	1.956E+7	7.822E+6	  -19.9804	    9.8356	    2.8276	  -33.9662	
  520.0000	2.383E-11	1.811E-11	2.009E+7	8.370E+6	  -19.9779	    9.8489	    2.8355	  -33.9290	
  540.0000	2.355E-11	1.809E-11	2.105E+7	8.862E+6	  -20.0059	    9.9167	    2.8270	  -33.9135	
  560.0000	2.318E-11	1.806E-11	2.197E+7	9.337E+6	  -20.0211	    9.9488	    2.8292	  -33.8838	
  580.0000	2.303E-11	1.806E-11	2.446E+7	9.985E+6	  -20.0211	    9.9439	    2.8216	  -33.9143	
  600.0000	2.274E-11	1.804E-11	2.428E+7	1.057E+7	  -20.0262	    9.7849	    2.8308	  -33.9894	
  620.0000	2.227E-11	1.802E-11	2.555E+7	1.133E+7	  -20.0389	    9.8337	    2.8286	  -33.9641	
  640.0000	2.234E-11	1.801E-11	2.601E+7	1.217E+7	  -20.0364	    9.9092	    2.8305	  -33.9061	
  660.0000	2.179E-11	1.800E-11	2.816E+7	1.302E+7	  -20.0262	    9.9403	    2.8333	  -33.8748	
  680.0000	2.133E-11	1.800E-11	3.030E+7	1.391E+7	  -19.9931	    9.9361	    2.8295	  -33.8912	
  700.0000	2.129E-11	1.798E-11	3.062E+7	1.481E+7	  -19.9906	    9.8975	    2.8400	  -33.8802	
  720.0000	2.056E-11	1.797E-11	3.138E+7	1.601E+7	  -19.9753	    9.9432	    2.8393	  -33.8514	
  740.0000	2.071E-11	1.796E-11	3.681E+7	1.718E+7	  -19.9702	    9.8432	    2.8403	  -33.9159	
  760.0000	2.036E-11	1.796E-11	3.881E+7	1.852E+7	  -19.9728	    9.8636	    2.8318	  -33.9326	
  780.0000	1.938E-11	1.795E-11	3.850E+7	1.932E+7	  -19.9804	    9.8636	    2.8368	  -33.9145	
  800.0000	1.989E-11	1.794E-11	4.462E+7	2.103E+7	  -19.9880	    9.9259	    2.8318	  -33.8903	
  820.0000	1.975E-11	1.795E-11	4.441E+7	2.215E+7	  -19.9982	    9.8533	    2.8264	  -33.9588	
  840.0000	1.986E-11	1.795E-11	4.945E+7	2.328E+7	  -20.0033	    9.8533	    2.8276	  -33.9543	
  860.0000	1.960E-11	1.795E-11	5.815E+7	2.443E+7	  -20.0084	    9.8493	    2.8248	  -33.9672	
  880.0000	1.946E-11	1.797E-11	5.845E+7	2.513E+7	  -20.0135	    9.8427	    2.8061	  -34.0387	
  900.0000	1.938E-11	1.797E-11	5.808E+7	2.565E+7	  -20.0033	    9.9029	    2.8156	  -33.9637	
  920.0000	1.941E-11	1.800E-11	5.312E+7	2.592E+7	  -20.0160	    9.8259	    2.8144	  -34.0205	
  940.0000	1.958E-11	1.801E-11	5.843E+7	2.649E+7	  -20.0237	    9.7550	    2.8087	  -34.0891	
  960.0000	1.954E-11	1.804E-11	5.515E+7	2.597E+7	  -20.0186	    9.7018	    2.8071	  -34.1308	
  980.0000	1.935E-11	1.797E-11	1.136E+8	2.573E+7	  -20.0084	    9.7608	    2.8112	  -34.0760	
 1000.0000	1.899E-11	1.792E-11	4.221E+7	2.652E+7	  -20.0109	    9.7223	    2.8036	  -34.1294	
 1020.0000	1.436E-11	1.605E-11	-2.290E+8	-5.030E+7	  -19.9931	    9.7373	    2.8058	  -34.1113	
 1040.0000	1.434E-11	1.597E-11	-8.338E+8	-4.424E+7	  -19.9931	    9.7373	    2.8068	  -34.1079	
 1060.0000	1.418E-11	1.590E-11	2.508E+8	-3.906E+7	  -19.9779	    9.8031	    2.8052	  -34.0690	
 1080.0000	7.264E-12	1.584E-11	-9.859E+6	-3.874E+7	  -19.9626	    9.8250	    2.8058	  -34.0518	
 1100.0000	1.268E-11	1.581E-11	6.625E+8	-3.400E+7	  -19.9652	    9.8293	    2.8083	  -34.0398	
