GCD Test
Bias: 5000.000000
IV_34340_014_PSS_HM_XX_DIODEHALFPSTOP
Date/Time: 7/2/2021 3:50:02 PM
Sensor Name: DIODEHALFPSTOP
Type: P
Annealing Status: Not Irradiated
Environment: 20C
Tester: Andrew Kent

Time Delay per Ramp Step (s): 0.500

CV Time Delay per Measurement (s) :0.500

AC Voltage (V): 0.500

Current Number of measurements per voltage: 1.000

IV Time Delay per Measurement (s) :0.000


BiasVoltage	Total Current_Avg	Total Current_0	Bias Current_Avg	Bias Current_0	Temperature	Air_Temp	Humidity	Dewpoint	
   -5.0000	5.2000E-11	5.2000E-11	-4.154567E-11	-4.154567E-11	   20.0399	   18.9857	    9.6493	  -13.1760	
  -10.0000	1.6000E-11	1.6000E-11	-4.254425E-11	-4.254425E-11	   19.9421	   18.9851	    9.6493	  -13.7355	
  -15.0000	3.9000E-11	3.9000E-11	-4.802910E-11	-4.802910E-11	   19.8469	   18.9947	    9.1714	  -14.1054	
  -20.0000	-3.5000E-11	-3.5000E-11	-4.912874E-11	-4.912874E-11	   19.7877	   18.9947	    9.1714	  -14.3471	
  -25.0000	-1.1100E-10	-1.1100E-10	-4.963822E-11	-4.963822E-11	   19.7671	   19.0025	    8.7966	  -14.6288	
  -30.0000	-1.7200E-10	-1.7200E-10	-5.152578E-11	-5.152578E-11	   19.7928	   19.0025	    8.6635	  -14.8471	
  -35.0000	-5.7000E-11	-5.7000E-11	-5.394991E-11	-5.394991E-11	   19.8520	   19.0031	    8.5408	  -15.0310	
  -40.0000	-9.5000E-11	-9.5000E-11	-5.570244E-11	-5.570244E-11	   19.9524	   19.0068	    8.4273	  -15.2004	
  -45.0000	-2.0300E-10	-2.0300E-10	-5.759121E-11	-5.759121E-11	   19.9524	   19.0145	    8.4273	  -15.3558	
  -50.0000	-2.1000E-10	-2.1000E-10	-5.902067E-11	-5.902067E-11	   20.0785	   19.0246	    8.3077	  -15.5201	
  -55.0000	-2.2700E-10	-2.2700E-10	-6.062588E-11	-6.062588E-11	   20.1943	   19.0385	    8.2280	  -15.6256	
  -60.0000	-1.0400E-10	-1.0400E-10	-6.194773E-11	-6.194773E-11	   20.2870	   19.0443	    8.1471	  -15.7400	
  -65.0000	-1.8800E-10	-1.8800E-10	-6.200987E-11	-6.200987E-11	   20.3359	   19.0540	    8.0734	  -15.8417	
  -70.0000	-1.8100E-10	-1.8100E-10	-6.196772E-11	-6.196772E-11	   20.3462	   19.0594	    8.0085	  -15.9344	
  -75.0000	-3.0300E-10	-3.0300E-10	-6.226433E-11	-6.226433E-11	   20.3102	   19.0645	    7.9526	  -16.0146	
  -80.0000	-2.1700E-10	-2.1700E-10	-6.257418E-11	-6.257418E-11	   20.2329	   19.0614	    7.8953	  -16.1033	
  -85.0000	-2.4900E-10	-2.4900E-10	-6.358171E-11	-6.358171E-11	   20.1326	   19.0601	    7.8555	  -16.1648	
  -90.0000	-3.3900E-10	-3.3900E-10	-6.470640E-11	-6.470640E-11	   20.0322	   19.0678	    7.8178	  -16.2164	
  -95.0000	-3.1600E-10	-3.1600E-10	-6.565548E-11	-6.565548E-11	   19.9215	   19.0634	    7.7742	  -16.2866	
 -100.0000	-3.2500E-10	-3.2500E-10	-6.808858E-11	-6.808858E-11	   19.8366	   19.0595	    7.7486	  -16.3289	
 -105.0000	-2.7300E-10	-2.7300E-10	-7.171115E-11	-7.171115E-11	   19.7696	   19.0603	    7.7052	  -16.3952	
 -110.0000	-3.0500E-10	-3.0500E-10	-7.571525E-11	-7.571525E-11	   19.7465	   19.0579	    7.6837	  -16.4303	
 -115.0000	-2.6500E-10	-2.6500E-10	-7.964742E-11	-7.964742E-11	   19.8108	   19.0579	    7.6448	  -16.4303	
 -120.0000	-4.1700E-10	-4.1700E-10	-8.397318E-11	-8.397318E-11	   19.8108	   19.0569	    7.6448	  -16.4916	
 -125.0000	-4.5800E-10	-4.5800E-10	-8.742748E-11	-8.742748E-11	   20.0064	   19.0776	    7.6113	  -16.5286	
 -130.0000	-3.5000E-10	-3.5000E-10	-8.937743E-11	-8.937743E-11	   20.0064	   19.0776	    7.6113	  -16.5286	
 -135.0000	-4.2900E-10	-4.2900E-10	-9.126862E-11	-9.126862E-11	   20.1686	   19.0776	    7.5886	  -16.5643	
 -140.0000	-4.1600E-10	-4.1600E-10	-9.260757E-11	-9.260757E-11	   20.3874	   19.0776	    7.5566	  -16.5643	
 -145.0000	-4.2700E-10	-4.2700E-10	-9.195451E-11	-9.195451E-11	   20.3874	   19.0834	    7.5566	  -16.6102	
 -150.0000	-4.6300E-10	-4.6300E-10	-9.126881E-11	-9.126881E-11	   20.4492	   19.0966	    7.5354	  -16.6339	
 -155.0000	-3.5400E-10	-3.5400E-10	-9.032969E-11	-9.032969E-11	   20.4054	   19.0966	    7.5354	  -16.6339	
 -160.0000	-3.9500E-10	-3.9500E-10	-9.020321E-11	-9.020321E-11	   20.3359	   19.0962	    7.5139	  -16.6717	
 -165.0000	-3.7700E-10	-3.7700E-10	-8.888294E-11	-8.888294E-11	   20.2329	   19.0962	    7.4981	  -16.6682	
 -170.0000	-4.9500E-10	-4.9500E-10	-8.702353E-11	-8.702353E-11	   20.1326	   19.0994	    7.4753	  -16.6909	
 -175.0000	-3.8100E-10	-3.8100E-10	-8.700334E-11	-8.700334E-11	   20.0219	   19.1040	    7.4744	  -16.7236	
 -180.0000	-3.7200E-10	-3.7200E-10	-8.659531E-11	-8.659531E-11	   19.9266	   19.0989	    7.4614	  -16.7289	
 -185.0000	-4.9800E-10	-4.9800E-10	-8.640725E-11	-8.640725E-11	   19.9266	   19.0960	    7.4614	  -16.7517	
 -190.0000	-4.0600E-10	-4.0600E-10	-8.701433E-11	-8.701433E-11	   19.8546	   19.0912	    7.4602	  -16.7573	
 -195.0000	-4.2000E-10	-4.2000E-10	-8.889452E-11	-8.889452E-11	   19.8211	   19.0916	    7.4472	  -16.7777	
 -200.0000	-4.3100E-10	-4.3100E-10	-8.962461E-11	-8.962461E-11	   19.8211	   19.0908	    7.4507	  -16.7728	
 -205.0000	-4.5600E-10	-4.5600E-10	-9.177153E-11	-9.177153E-11	   19.8572	   19.0935	    7.4339	  -16.7975	
 -210.0000	-5.0300E-10	-5.0300E-10	-9.256579E-11	-9.256579E-11	   19.9318	   19.0964	    7.4415	  -16.7832	
 -215.0000	-4.6100E-10	-4.6100E-10	-9.474544E-11	-9.474544E-11	   20.0322	   19.0992	    7.4345	  -16.7923	
 -220.0000	-4.9600E-10	-4.9600E-10	-9.573285E-11	-9.573285E-11	   20.1326	   19.1008	    7.4178	  -16.8180	
 -225.0000	-5.3700E-10	-5.3700E-10	-9.589092E-11	-9.589092E-11	   20.2381	   19.1069	    7.4393	  -16.7790	
 -230.0000	-4.8800E-10	-4.8800E-10	-9.556862E-11	-9.556862E-11	   20.3102	   19.1076	    7.4399	  -16.7775	
 -235.0000	-6.1100E-10	-6.1100E-10	-9.452666E-11	-9.452666E-11	   20.3488	   19.1159	    7.4247	  -16.7956	
 -240.0000	-6.1700E-10	-6.1700E-10	-9.307850E-11	-9.307850E-11	   20.3411	   19.1145	    7.4349	  -16.7805	
 -245.0000	-4.9800E-10	-4.9800E-10	-9.223580E-11	-9.223580E-11	   20.2870	   19.1178	    7.4162	  -16.8079	
 -250.0000	-5.9600E-10	-5.9600E-10	-9.179759E-11	-9.179759E-11	   20.2098	   19.1142	    7.4159	  -16.8110	
 -255.0000	-5.2800E-10	-5.2800E-10	-8.981144E-11	-8.981144E-11	   20.1042	   19.1117	    7.3963	  -16.8444	
 -260.0000	-4.8800E-10	-4.8800E-10	-8.920637E-11	-8.920637E-11	   19.9936	   19.1154	    7.3896	  -16.8523	
 -265.0000	-5.1700E-10	-5.1700E-10	-8.913820E-11	-8.913820E-11	   19.8983	   19.1039	    7.3928	  -16.8557	
 -270.0000	-6.5400E-10	-6.5400E-10	-8.945680E-11	-8.945680E-11	   19.8134	   19.1113	    7.3852	  -16.8624	
 -275.0000	-6.8600E-10	-6.8600E-10	-9.189534E-11	-9.189534E-11	   19.7696	   19.1069	    7.3830	  -16.8692	
 -280.0000	-6.7500E-10	-6.7500E-10	-9.139729E-11	-9.139729E-11	   19.7594	   19.1051	    7.3808	  -16.8742	
 -285.0000	-7.2600E-10	-7.2600E-10	-9.324946E-11	-9.324946E-11	   19.7902	   19.1070	    7.3789	  -16.8758	
 -290.0000	-6.6700E-10	-6.6700E-10	-9.486121E-11	-9.486121E-11	   19.8649	   19.1108	    7.3868	  -16.8603	
 -295.0000	-6.9600E-10	-6.9600E-10	-9.676298E-11	-9.676298E-11	   19.9627	   19.1109	    7.3877	  -16.8587	
 -300.0000	-7.3600E-10	-7.3600E-10	-9.850658E-11	-9.850658E-11	   20.0785	   19.1150	    7.3928	  -16.8475	
 -305.0000	-6.9300E-10	-6.9300E-10	-9.944544E-11	-9.944544E-11	   20.2072	   19.1185	    7.3817	  -16.8627	
 -310.0000	-8.2300E-10	-8.2300E-10	-9.903763E-11	-9.903763E-11	   20.3050	   19.1236	    7.3858	  -16.8523	
 -315.0000	-6.1200E-10	-6.1200E-10	-9.872269E-11	-9.872269E-11	   20.3719	   19.1340	    7.3887	  -16.8400	
 -320.0000	-6.5000E-10	-6.5000E-10	-9.696652E-11	-9.696652E-11	   20.3874	   19.1323	    7.3770	  -16.8602	
 -325.0000	-6.6200E-10	-6.6200E-10	-9.648371E-11	-9.648371E-11	   20.3539	   19.1358	    7.3817	  -16.8499	
 -330.0000	-7.5900E-10	-7.5900E-10	-9.486016E-11	-9.486016E-11	   20.2767	   19.1378	    7.3763	  -16.8571	
 -335.0000	-6.2500E-10	-6.2500E-10	-9.331805E-11	-9.331805E-11	   20.1840	   19.1345	    7.3725	  -16.8656	
 -340.0000	-6.5500E-10	-6.5500E-10	-9.241401E-11	-9.241401E-11	   20.0862	   19.1294	    7.3653	  -16.8812	
 -345.0000	-7.4800E-10	-7.4800E-10	-9.209706E-11	-9.209706E-11	   19.9755	   19.1308	    7.3580	  -16.8919	
 -350.0000	-7.2800E-10	-7.2800E-10	-9.135003E-11	-9.135003E-11	   19.8803	   19.1298	    7.3533	  -16.9002	
 -355.0000	-6.9800E-10	-6.9800E-10	-9.253052E-11	-9.253052E-11	   19.8031	   19.1289	    7.3526	  -16.9020	
 -360.0000	-8.2600E-10	-8.2600E-10	-9.389151E-11	-9.389151E-11	   19.7722	   19.1255	    7.3504	  -16.9081	
 -365.0000	-7.5700E-10	-7.5700E-10	-9.500210E-11	-9.500210E-11	   19.8134	   19.1255	    7.3460	  -16.9081	
 -370.0000	-7.7400E-10	-7.7400E-10	-9.672144E-11	-9.672144E-11	   19.8134	   19.1255	    7.3460	  -16.9152	
 -375.0000	-9.1800E-10	-9.1800E-10	-9.850305E-11	-9.850305E-11	   19.8958	   19.1306	    7.3422	  -16.9176	
 -380.0000	-8.9900E-10	-8.9900E-10	-1.003082E-10	-1.003082E-10	   19.9833	   19.1327	    7.3567	  -16.8925	
 -385.0000	-9.6200E-10	-9.6200E-10	-1.020924E-10	-1.020924E-10	   20.0914	   19.1360	    7.3602	  -16.8845	
 -390.0000	-8.8000E-10	-8.8000E-10	-1.032809E-10	-1.032809E-10	   20.2124	   19.1449	    7.3722	  -16.8585	
 -395.0000	-8.6500E-10	-8.6500E-10	-1.025441E-10	-1.025441E-10	   20.3282	   19.1449	    7.3653	  -16.8585	
 -400.0000	-8.7300E-10	-8.7300E-10	-1.025648E-10	-1.025648E-10	   20.3282	   19.1449	    7.3653	  -16.8697	
 -410.0000	-8.9900E-10	-8.9900E-10	-1.016060E-10	-1.016060E-10	   20.3745	   19.1574	    7.3599	  -16.8691	
 -420.0000	-8.8400E-10	-8.8400E-10	-1.010952E-10	-1.010952E-10	   20.3539	   19.1574	    7.3552	  -16.8691	
 -430.0000	-9.4600E-10	-9.4600E-10	-1.004140E-10	-1.004140E-10	   20.3539	   19.1541	    7.3552	  -16.8792	
 -440.0000	-9.3800E-10	-9.3800E-10	-9.846029E-11	-9.846029E-11	   20.2870	   19.1572	    7.3744	  -16.8458	
 -450.0000	-9.4200E-10	-9.4200E-10	-9.814782E-11	-9.814782E-11	   20.1918	   19.1554	    7.3608	  -16.8691	
 -460.0000	-1.0260E-9	-1.0260E-9	-9.720218E-11	-9.720218E-11	   20.0373	   19.1554	    7.3681	  -16.8691	
 -470.0000	-9.6800E-10	-9.6800E-10	-9.606543E-11	-9.606543E-11	   20.0373	   19.1577	    7.3681	  -16.8556	
 -480.0000	-1.0340E-9	-1.0340E-9	-9.558552E-11	-9.558552E-11	   19.9292	   19.1515	    7.3688	  -16.8591	
 -490.0000	-1.1040E-9	-1.1040E-9	-9.683304E-11	-9.683304E-11	   19.8469	   19.1488	    7.3577	  -16.8790	
 -500.0000	-1.2930E-9	-1.2930E-9	-9.746778E-11	-9.746778E-11	   19.7877	   19.1516	    7.3571	  -16.8780	
 -510.0000	-1.1690E-9	-1.1690E-9	-9.732294E-11	-9.732294E-11	   19.7722	   19.1516	    7.3514	  -16.8780	
 -520.0000	-1.1810E-9	-1.1810E-9	-9.990946E-11	-9.990946E-11	   19.7722	   19.1516	    7.3514	  -16.8872	
 -530.0000	-1.2530E-9	-1.2530E-9	-1.008438E-10	-1.008438E-10	   19.8160	   19.1489	    7.3542	  -16.8846	
 -540.0000	-1.4450E-9	-1.4450E-9	-1.027997E-10	-1.027997E-10	   19.8932	   19.1531	    7.3545	  -16.8810	
 -550.0000	-1.3330E-9	-1.3330E-9	-1.045474E-10	-1.045474E-10	   20.0399	   19.1531	    7.3612	  -16.8810	
 -560.0000	-1.4560E-9	-1.4560E-9	-1.071578E-10	-1.071578E-10	   20.0399	   19.1531	    7.3612	  -16.8703	
 -570.0000	-1.4560E-9	-1.4560E-9	-1.074845E-10	-1.074845E-10	   20.1789	   19.1577	    7.3599	  -16.8689	
 -580.0000	-1.3670E-9	-1.3670E-9	-1.082401E-10	-1.082401E-10	   20.3205	   19.1577	    7.3596	  -16.8689	
 -590.0000	-1.4870E-9	-1.4870E-9	-1.089408E-10	-1.089408E-10	   20.3205	   19.1663	    7.3596	  -16.8630	
 -600.0000	-1.5150E-9	-1.5150E-9	-1.079606E-10	-1.079606E-10	   20.3900	   19.1766	    7.3520	  -16.8676	
 -610.0000	-1.3840E-9	-1.3840E-9	-1.066797E-10	-1.066797E-10	   20.3951	   19.1766	    7.3501	  -16.8676	
 -620.0000	-1.4180E-9	-1.4180E-9	-1.056784E-10	-1.056784E-10	   20.3951	   19.1764	    7.3501	  -16.8709	
 -630.0000	-1.4530E-9	-1.4530E-9	-1.041912E-10	-1.041912E-10	   20.3282	   19.1835	    7.3469	  -16.8707