GCD Test
Bias: 5000.000000
IV_37399_049_PSS_HM_XX_DIODEHALFPSTOP_GR
Date/Time: 11/3/2021 7:26:00 PM
Sensor Name: DIODEHALFPSTOP
Type: P
Annealing Status: Not Irradiated and Not Annealed
Environment: 20C
Tester: Andrew Kent

Time Delay per Ramp Step (s): 0.500

CV Time Delay per Measurement (s) :0.500

AC Voltage (V): 0.500

Current Number of measurements per voltage: 1.000

IV Time Delay per Measurement (s) :0.000


BiasVoltage	Total Current_Avg	Total Current_0	Bias Current_Avg	Bias Current_0	Temperature	Air_Temp	Humidity	Dewpoint	
   -5.0000	1.2100E-10	1.2100E-10	-1.618172E-11	-1.618172E-11	   19.9961	   21.4335	    8.0206	  -13.8752	
  -10.0000	4.8000E-11	4.8000E-11	-1.667410E-11	-1.667410E-11	   19.9961	   21.4308	    8.0206	  -14.1467	
  -15.0000	1.4500E-10	1.4500E-10	-1.724796E-11	-1.724796E-11	   19.9987	   21.4310	    7.8346	  -14.4318	
  -20.0000	7.9000E-11	7.9000E-11	-1.800821E-11	-1.800821E-11	   20.0013	   21.4328	    7.7100	  -14.6249	
  -25.0000	-7.4000E-11	-7.4000E-11	-1.857147E-11	-1.857147E-11	   20.0039	   21.4330	    7.5835	  -14.8251	
  -30.0000	-4.1000E-11	-4.1000E-11	-1.936025E-11	-1.936025E-11	   20.0064	   21.4329	    7.4738	  -15.0014	
  -35.0000	-9.7000E-11	-9.7000E-11	-1.973345E-11	-1.973345E-11	   20.0064	   21.4325	    7.3779	  -15.1575	
  -40.0000	-1.1600E-10	-1.1600E-10	-2.009809E-11	-2.009809E-11	   20.0064	   21.4330	    7.2995	  -15.2860	
  -45.0000	-5.8000E-11	-5.8000E-11	-2.069925E-11	-2.069925E-11	   20.0064	   21.4328	    7.2211	  -15.4163	
  -50.0000	-1.3100E-10	-1.3100E-10	-2.063406E-11	-2.063406E-11	   20.0064	   21.4319	    7.1562	  -15.5254	
  -55.0000	-1.4700E-10	-1.4700E-10	-2.118571E-11	-2.118571E-11	   20.0039	   21.4351	    7.0996	  -15.6185	
  -60.0000	-1.7200E-10	-1.7200E-10	-2.133381E-11	-2.133381E-11	   19.9987	   21.4351	    7.0247	  -15.6185	
  -65.0000	-1.7900E-10	-1.7900E-10	-2.097833E-11	-2.097833E-11	   19.9987	   21.4403	    7.0247	  -15.7421	
  -70.0000	-1.1700E-10	-1.1700E-10	-2.138657E-11	-2.138657E-11	   19.9936	   21.4375	    6.9605	  -15.8543	
  -75.0000	-1.8200E-10	-1.8200E-10	-2.186224E-11	-2.186224E-11	   19.9936	   21.4375	    6.9605	  -15.8543	
  -80.0000	-2.1700E-10	-2.1700E-10	-2.212971E-11	-2.212971E-11	   19.9884	   21.4430	    6.9010	  -15.9531	
  -85.0000	-1.3800E-10	-1.3800E-10	-2.208571E-11	-2.208571E-11	   19.9884	   21.4430	    6.8741	  -15.9531	
  -90.0000	-1.2900E-10	-1.2900E-10	-2.224766E-11	-2.224766E-11	   19.9910	   21.4445	    6.8741	  -15.9987	
  -95.0000	-2.0000E-10	-2.0000E-10	-2.235685E-11	-2.235685E-11	   19.9936	   21.4425	    6.8283	  -16.0520	
 -100.0000	-2.0900E-10	-2.0900E-10	-2.219509E-11	-2.219509E-11	   19.9987	   21.4425	    6.8213	  -16.0803	
 -105.0000	-1.6100E-10	-1.6100E-10	-2.272414E-11	-2.272414E-11	   20.0039	   21.4366	    6.7998	  -16.0968	
 -110.0000	-2.6100E-10	-2.6100E-10	-2.290972E-11	-2.290972E-11	   20.0116	   21.4379	    6.7824	  -16.1336	
 -115.0000	-2.7800E-10	-2.7800E-10	-2.328822E-11	-2.328822E-11	   20.0116	   21.4468	    6.7824	  -16.1577	
 -120.0000	-1.6700E-10	-1.6700E-10	-2.341473E-11	-2.341473E-11	   20.0167	   21.4436	    6.7710	  -16.1801	
 -125.0000	-1.7000E-10	-1.7000E-10	-2.348684E-11	-2.348684E-11	   20.0167	   21.4459	    6.7631	  -16.1924	
 -130.0000	-2.7400E-10	-2.7400E-10	-2.384355E-11	-2.384355E-11	   20.0167	   21.4425	    6.7495	  -16.2190	
 -135.0000	-2.7700E-10	-2.7700E-10	-2.354125E-11	-2.354125E-11	   20.0167	   21.4455	    6.7356	  -16.2415	
 -140.0000	-3.1300E-10	-3.1300E-10	-2.388428E-11	-2.388428E-11	   20.0142	   21.4444	    6.7388	  -16.2366	
 -145.0000	-2.9900E-10	-2.9900E-10	-2.392401E-11	-2.392401E-11	   20.0116	   21.4457	    6.7261	  -16.2582	
 -150.0000	-3.1200E-10	-3.1200E-10	-2.460664E-11	-2.460664E-11	   20.0090	   21.4494	    6.7163	  -16.2728	
 -155.0000	-3.4500E-10	-3.4500E-10	-2.484172E-11	-2.484172E-11	   20.0039	   21.4437	    6.7182	  -16.2737	
 -160.0000	-2.2400E-10	-2.2400E-10	-2.529601E-11	-2.529601E-11	   20.0013	   21.4443	    6.7024	  -16.3013	
 -165.0000	-3.0800E-10	-3.0800E-10	-2.502486E-11	-2.502486E-11	   19.9987	   21.4430	    6.7056	  -16.2967	
 -170.0000	-3.5600E-10	-3.5600E-10	-2.538482E-11	-2.538482E-11	   19.9961	   21.4479	    6.7071	  -16.2903	
 -175.0000	-2.6100E-10	-2.6100E-10	-2.601816E-11	-2.601816E-11	   19.9961	   21.4451	    6.7030	  -16.2996	
 -180.0000	-3.6700E-10	-3.6700E-10	-2.631457E-11	-2.631457E-11	   19.9961	   21.4464	    6.6869	  -16.3275	
 -185.0000	-2.6000E-10	-2.6000E-10	-2.626161E-11	-2.626161E-11	   19.9987	   21.4475	    6.6891	  -16.3227	
 -190.0000	-2.8200E-10	-2.8200E-10	-2.648345E-11	-2.648345E-11	   19.9987	   21.4483	    6.6790	  -16.3402	
 -195.0000	-2.7600E-10	-2.7600E-10	-2.701329E-11	-2.701329E-11	   20.0039	   21.4493	    6.6828	  -16.3327	
 -200.0000	-3.9400E-10	-3.9400E-10	-2.765438E-11	-2.765438E-11	   20.0064	   21.4523	    6.6777	  -16.3396	
 -205.0000	-3.3900E-10	-3.3900E-10	-2.847188E-11	-2.847188E-11	   20.0090	   21.4478	    6.6888	  -16.3230	
 -210.0000	-3.0500E-10	-3.0500E-10	-2.886647E-11	-2.886647E-11	   20.0116	   21.4523	    6.6796	  -16.3361	
 -215.0000	-3.0200E-10	-3.0200E-10	-2.990051E-11	-2.990051E-11	   20.0116	   21.4513	    6.6692	  -16.3555	
 -220.0000	-4.3400E-10	-4.3400E-10	-3.101460E-11	-3.101460E-11	   20.0090	   21.4513	    6.6743	  -16.3555	
 -225.0000	-3.1400E-10	-3.1400E-10	-3.220266E-11	-3.220266E-11	   20.0090	   21.4524	    6.6743	  -16.3457	
 -230.0000	-4.3100E-10	-4.3100E-10	-3.326970E-11	-3.326970E-11	   20.0090	   21.4522	    6.6752	  -16.3441	
 -235.0000	-3.2600E-10	-3.2600E-10	-3.446836E-11	-3.446836E-11	   20.0013	   21.4498	    6.6654	  -16.3634	
 -240.0000	-4.0500E-10	-4.0500E-10	-3.628485E-11	-3.628485E-11	   20.0013	   21.4498	    6.6654	  -16.3634	
 -245.0000	-4.2800E-10	-4.2800E-10	-3.768150E-11	-3.768150E-11	   19.9936	   21.4513	    6.6670	  -16.3595	
 -250.0000	-4.1700E-10	-4.1700E-10	-3.973043E-11	-3.973043E-11	   19.9936	   21.4513	    6.6670	  -16.3595	
 -255.0000	-4.8400E-10	-4.8400E-10	-4.123710E-11	-4.123710E-11	   19.9910	   21.4547	    6.6657	  -16.3593	
 -260.0000	-4.6800E-10	-4.6800E-10	-4.267266E-11	-4.267266E-11	   19.9910	   21.4547	    6.6657	  -16.3593	
 -265.0000	-5.3700E-10	-5.3700E-10	-4.416609E-11	-4.416609E-11	   19.9936	   21.4563	    6.6610	  -16.3666	
 -270.0000	-4.1800E-10	-4.1800E-10	-4.559043E-11	-4.559043E-11	   19.9961	   21.4563	    6.6610	  -16.3666	
 -275.0000	-3.8100E-10	-3.8100E-10	-4.663588E-11	-4.663588E-11	   20.0013	   21.4580	    6.6613	  -16.3659	
 -280.0000	-4.7700E-10	-4.7700E-10	-4.773084E-11	-4.773084E-11	   20.0064	   21.4580	    6.6588	  -16.3648	
 -285.0000	-4.7000E-10	-4.7000E-10	-4.792579E-11	-4.792579E-11	   20.0090	   21.4490	    6.6626	  -16.3759	
 -290.0000	-5.2300E-10	-5.2300E-10	-4.917514E-11	-4.917514E-11	   20.0142	   21.4524	    6.6575	  -16.3667	
 -295.0000	-4.3600E-10	-4.3600E-10	-4.966936E-11	-4.966936E-11	   20.0167	   21.4539	    6.6648	  -16.3746	
 -300.0000	-4.8400E-10	-4.8400E-10	-5.015948E-11	-5.015948E-11	   20.0142	   21.4531	    6.6565	  -16.3621	
 -305.0000	-5.3800E-10	-5.3800E-10	-5.067324E-11	-5.067324E-11	   20.0142	   21.4535	    6.6565	  -16.3766	
 -310.0000	-5.4200E-10	-5.4200E-10	-5.133980E-11	-5.133980E-11	   20.0142	   21.4561	    6.6550	  -16.3776	
 -315.0000	-4.4300E-10	-4.4300E-10	-5.217236E-11	-5.217236E-11	   20.0116	   21.4581	    6.6629	  -16.3619	
 -320.0000	-4.5200E-10	-4.5200E-10	-5.253436E-11	-5.253436E-11	   20.0090	   21.4545	    6.6556	  -16.3776	
 -325.0000	-5.5100E-10	-5.5100E-10	-5.236020E-11	-5.236020E-11	   20.0064	   21.4458	    6.6667	  -16.3641	
 -330.0000	-5.7300E-10	-5.7300E-10	-5.295094E-11	-5.295094E-11	   20.0039	   21.4531	    6.6616	  -16.3678	
 -335.0000	-5.3900E-10	-5.3900E-10	-5.337183E-11	-5.337183E-11	   19.9987	   21.4487	    6.6562	  -16.3806	
 -340.0000	-5.7300E-10	-5.7300E-10	-5.365640E-11	-5.365640E-11	   19.9987	   21.4540	    6.6524	  -16.3836	
 -345.0000	-5.9400E-10	-5.9400E-10	-5.388803E-11	-5.388803E-11	   19.9961	   21.4523	    6.6622	  -16.3673	
 -350.0000	-5.9600E-10	-5.9600E-10	-5.434250E-11	-5.434250E-11	   19.9961	   21.4512	    6.6591	  -16.3738	
 -355.0000	-5.8200E-10	-5.8200E-10	-5.456618E-11	-5.456618E-11	   19.9961	   21.4523	    6.6613	  -16.3689	
 -360.0000	-5.9700E-10	-5.9700E-10	-5.511338E-11	-5.511338E-11	   19.9987	   21.4536	    6.6597	  -16.3708	
 -365.0000	-6.0800E-10	-6.0800E-10	-5.505674E-11	-5.505674E-11	   20.0013	   21.4530	    6.6619	  -16.3673	
 -370.0000	-5.9400E-10	-5.9400E-10	-5.560246E-11	-5.560246E-11	   20.0039	   21.4562	    6.6581	  -16.3718	
 -375.0000	-6.2500E-10	-6.2500E-10	-5.559757E-11	-5.559757E-11	   20.0064	   21.4555	    6.6569	  -16.3745	
 -380.0000	-6.4200E-10	-6.4200E-10	-5.617692E-11	-5.617692E-11	   20.0090	   21.4546	    6.6588	  -16.3718	
 -385.0000	-6.1600E-10	-6.1600E-10	-5.605695E-11	-5.605695E-11	   20.0116	   21.4552	    6.6720	  -16.3476	
 -390.0000	-6.1500E-10	-6.1500E-10	-5.492574E-11	-5.492574E-11	   20.0090	   21.4542	    6.6553	  -16.3783	
 -395.0000	-5.5400E-10	-5.5400E-10	-5.650429E-11	-5.650429E-11	   20.0064	   21.4557	    6.6591	  -16.3705	
 -400.0000	-6.0400E-10	-6.0400E-10	-5.668847E-11	-5.668847E-11	   20.0039	   21.4557	    6.6607	  -16.3705	
 -410.0000	-6.7200E-10	-6.7200E-10	-5.700076E-11	-5.700076E-11	   19.9987	   21.4549	    6.6591	  -16.3682	
 -420.0000	-7.2500E-10	-7.2500E-10	-5.783657E-11	-5.783657E-11	   19.9987	   21.4547	    6.6619	  -16.3712	
 -430.0000	-7.5100E-10	-7.5100E-10	-5.818758E-11	-5.818758E-11	   19.9961	   21.4601	    6.6645	  -16.3622	
 -440.0000	-7.4800E-10	-7.4800E-10	-5.845240E-11	-5.845240E-11	   19.9961	   21.4598	    6.6645	  -16.3578	
 -450.0000	-8.0300E-10	-8.0300E-10	-5.834565E-11	-5.834565E-11	   19.9961	   21.4590	    6.6622	  -16.3624	
 -460.0000	-8.2900E-10	-8.2900E-10	-5.934814E-11	-5.934814E-11	   19.9961	   21.4623	    6.6651	  -16.3548	
 -470.0000	-7.3000E-10	-7.3000E-10	-5.891849E-11	-5.891849E-11	   19.9961	   21.4641	    6.6588	  -16.3649	
 -480.0000	-7.8100E-10	-7.8100E-10	-5.951291E-11	-5.951291E-11	   19.9987	   21.4583	    6.6594	  -16.3680	
 -490.0000	-7.6000E-10	-7.6000E-10	-6.005867E-11	-6.005867E-11	   20.0013	   21.4626	    6.6594	  -16.3648	
 -500.0000	-9.0000E-10	-9.0000E-10	-6.035510E-11	-6.035510E-11	   20.0013	   21.4610	    6.6603	  -16.3643	
 -510.0000	-8.3300E-10	-8.3300E-10	-6.092039E-11	-6.092039E-11	   20.0039	   21.4658	    6.6651	  -16.3523	
 -520.0000	-8.3700E-10	-8.3700E-10	-6.085173E-11	-6.085173E-11	   20.0064	   21.4601	    6.6676	  -16.3520	
 -530.0000	-8.6600E-10	-8.6600E-10	-6.154147E-11	-6.154147E-11	   20.0064	   21.4626	    6.6588	  -16.3660	
 -540.0000	-8.2100E-10	-8.2100E-10	-6.183829E-11	-6.183829E-11	   20.0064	   21.4663	    6.6584	  -16.3639	
 -550.0000	-9.6800E-10	-9.6800E-10	-6.198946E-11	-6.198946E-11	   20.0090	   21.4593	    6.6603	  -16.3655	
 -560.0000	-9.8200E-10	-9.8200E-10	-6.246310E-11	-6.246310E-11	   20.0064	   21.4598	    6.6676	  -16.3522	
 -570.0000	-9.2500E-10	-9.2500E-10	-6.303063E-11	-6.303063E-11	   20.0039	   21.4617	    6.6679	  -16.3502	
 -580.0000	-9.3800E-10	-9.3800E-10	-6.270408E-11	-6.270408E-11	   20.0013	   21.4635	    6.6727	  -16.3404	
 -590.0000	-1.0140E-9	-1.0140E-9	-6.283487E-11	-6.283487E-11	   19.9961	   21.4664	    6.6762	  -16.3321	
 -600.0000	-9.3900E-10	-9.3900E-10	-6.316243E-11	-6.316243E-11	   19.9961	   21.4641	    6.6705	  -16.3439	
 -610.0000	-9.2900E-10	-9.2900E-10	-6.348388E-11	-6.348388E-11	   19.9936	   21.4584	    6.6638	  -16.3600	
 -620.0000	-9.6400E-10	-9.6400E-10	-6.358207E-11	-6.358207E-11	   19.9961	   21.4627	    6.6679	  -16.3495	
 -630.0000	-1.0570E-9	-1.0570E-9	-6.379598E-11	-6.379598E-11	   19.9961	   21.4654	    6.6654	  -16.3520	
 -640.0000	-9.6300E-10	-9.6300E-10	-6.395018E-11	-6.395018E-11	   19.9987	   21.4654	    6.6641	  -16.3520	
 -650.0000	-9.8100E-10	-9.8100E-10	-6.468173E-11	-6.468173E-11	   20.0013	   21.4642	    6.6667	  -16.3552	
 -660.0000	-1.0110E-9	-1.0110E-9	-6.479029E-11	-6.479029E-11	   20.0039	   21.4637	    6.6705	  -16.3510	
 -670.0000	-9.9600E-10	-9.9600E-10	-6.507280E-11	-6.507280E-11	   20.0039	   21.4602	    6.6733	  -16.3468	
 -680.0000	-1.0070E-9	-1.0070E-9	-6.522787E-11	-6.522787E-11	   20.0039	   21.4638	    6.6733	  -16.3390	
 -690.0000	-1.0200E-9	-1.0200E-9	-6.549860E-11	-6.549860E-11	   20.0064	   21.4666	    6.6648	  -16.3523	
 -700.0000	-1.1620E-9	-1.1620E-9	-6.570758E-11	-6.570758E-11	   20.0064	   21.4631	    6.6692	  -16.3469	
 -710.0000	-1.1170E-9	-1.1170E-9	-6.561063E-11	-6.561063E-11	   20.0064	   21.4622	    6.6638	  -16.3572	
 -720.0000	-1.1760E-9	-1.1760E-9	-6.600095E-11	-6.600095E-11	   20.0039	   21.4588	    6.6619	  -16.3631	
 -730.0000	-1.1170E-9	-1.1170E-9	-6.655485E-11	-6.655485E-11	   20.0013	   21.4637	    6.6622	  -16.3590	
 -740.0000	-1.1310E-9	-1.1310E-9	-6.641795E-11	-6.641795E-11	   20.0013	   21.4608	    6.6730	  -16.3418	
 -750.0000	-1.1470E-9	-1.1470E-9	-6.630223E-11	-6.630223E-11	   19.9987	   21.4606	    6.6781	  -16.3329	
 -760.0000	-1.1470E-9	-1.1470E-9	-6.661124E-11	-6.661124E-11	   19.9961	   21.4610	    6.6695	  -16.3479	
 -770.0000	-1.2210E-9	-1.2210E-9	-6.697365E-11	-6.697365E-11	   19.9936	   21.4632	    6.6730	  -16.3400	
 -780.0000	-1.2710E-9	-1.2710E-9	-6.750556E-11	-6.750556E-11	   19.9936	   21.4578	    6.6540	  -16.3780	
 -790.0000	-1.2080E-9	-1.2080E-9	-6.711441E-11	-6.711441E-11	   19.9936	   21.4591	    6.6645	  -16.3583	
 -800.0000	-1.2920E-9	-1.2920E-9	-6.753835E-11	-6.753835E-11	   19.9936	   21.4593	    6.6626	  -16.3616	
 -810.0000	-1.1920E-9	-1.1920E-9	-6.766118E-11	-6.766118E-11	   19.9936	   21.4561	    6.6676	  -16.3549	
 -820.0000	-1.2500E-9	-1.2500E-9	-6.769704E-11	-6.769704E-11	   20.0013	   21.4561	    6.6654	  -16.3549	
 -830.0000	-1.2730E-9	-1.2730E-9	-6.808371E-11	-6.808371E-11	   20.0013	   21.4579	    6.6654	  -16.3575	
 -840.0000	-1.3960E-9	-1.3960E-9	-6.833692E-11	-6.833692E-11	   20.0064	   21.4640	    6.6749	  -16.3361	
 -850.0000	-1.2910E-9	-1.2910E-9	-6.895009E-11	-6.895009E-11	   20.0116	   21.4640	    6.6705	  -16.3361	
 -860.0000	-1.3410E-9	-1.3410E-9	-6.861558E-11	-6.861558E-11	   20.0116	   21.4640	    6.6705	  -16.3440	
 -870.0000	-1.3890E-9	-1.3890E-9	-6.884802E-11	-6.884802E-11	   20.0116	   21.4601	    6.6635	  -16.3593	
 -880.0000	-1.3950E-9	-1.3950E-9	-6.917415E-11	-6.917415E-11	   20.0090	   21.4601	    6.6749	  -16.3593	
 -890.0000	-1.4020E-9	-1.4020E-9	-6.923650E-11	-6.923650E-11	   20.0064	   21.4595	    6.6679	  -16.3393	
 -900.0000	-1.4160E-9	-1.4160E-9	-6.938926E-11	-6.938926E-11	   20.0039	   21.4628	    6.6733	  -16.3494	
 -910.0000	-1.6100E-9	-1.6100E-9	-6.954205E-11	-6.954205E-11	   20.0039	   21.4652	    6.6733	  -16.3380	
 -920.0000	-1.6360E-9	-1.6360E-9	-6.963843E-11	-6.963843E-11	   20.0013	   21.4594	    6.6686	  -16.3508	
 -930.0000	-1.6200E-9	-1.6200E-9	-6.983258E-11	-6.983258E-11	   19.9987	   21.4677	    6.6664	  -16.3486	
 -940.0000	-1.5920E-9	-1.5920E-9	-7.001041E-11	-7.001041E-11	   19.9961	   21.4649	    6.6784	  -16.3292	
 -950.0000	-1.5870E-9	-1.5870E-9	-7.014652E-11	-7.014652E-11	   19.9961	   21.4649	    6.6752	  -16.3292	
 -960.0000	-1.6960E-9	-1.6960E-9	-6.999022E-11	-6.999022E-11	   19.9961	   21.4624	    6.6752	  -16.3367	
 -970.0000	-1.7250E-9	-1.7250E-9	-7.088923E-11	-7.088923E-11	   19.9961	   21.4624	    6.6679	  -16.3367	
 -980.0000	-1.8080E-9	-1.8080E-9	-7.097743E-11	-7.097743E-11	   19.9961	   21.4588	    6.6679	  -16.3523	
 -990.0000	-1.8820E-9	-1.8820E-9	-7.090672E-11	-7.090672E-11	   19.9961	   21.4646	    6.6730	  -16.3391	
-1000.0000	-1.9590E-9	-1.9590E-9	-7.156045E-11	-7.156045E-11	   20.0013	   21.4646	    6.6667	  -16.3391	
