GCD Test
Bias: 5000.000000
CV_34341_041_PSS_HM_XX_DIODE
Date/Time: 7/6/2021 1:24:16 PM
Sensor Name: DIODE
Type: P
Annealing Status: Not Irradiated
Environment: 20C
Tester: Andrew Kent

Time Delay per Ramp Step (s): 0.500

CV Time Delay per Measurement (s) :0.500

AC Voltage (V): 0.500

Current Number of measurements per voltage: 1.000

IV Time Delay per Measurement (s) :0.000


BiasVoltage	LCR_Cp_freqNaN	LCR_Rp_freqNaN	Temperature	Air_Temp	Humidity	Dewpoint	
   -5.0000	7.069E-11	3.477E+8	   19.7877	   20.3752	    6.9171	  -16.7088	
  -10.0000	5.253E-11	5.452E+8	   19.8031	   20.3821	    6.9140	  -16.7092	
  -15.0000	4.567E-11	6.541E+8	   19.8031	   20.3821	    6.9140	  -16.7092	
  -20.0000	4.099E-11	7.545E+8	   20.0193	   20.3743	    6.9295	  -16.6883	
  -25.0000	3.762E-11	8.274E+8	   20.1145	   20.3711	    6.9235	  -16.7010	
  -30.0000	3.512E-11	8.620E+8	   20.1145	   20.3711	    6.9235	  -16.7010	
  -35.0000	3.292E-11	8.799E+8	   20.2458	   20.3943	    6.9203	  -16.6893	
  -40.0000	3.102E-11	9.467E+8	   20.3024	   20.4016	    6.9118	  -16.6987	
  -45.0000	2.930E-11	9.955E+8	   20.3282	   20.3925	    6.9213	  -16.6890	
  -50.0000	2.765E-11	1.052E+9	   20.3076	   20.3870	    6.9080	  -16.7159	
  -55.0000	2.631E-11	1.107E+9	   20.2510	   20.3896	    6.9061	  -16.7173	
  -60.0000	2.512E-11	1.137E+9	   20.1660	   20.3785	    6.9086	  -16.7211	
  -65.0000	2.407E-11	1.209E+9	   20.0734	   20.3752	    6.9029	  -16.7333	
  -70.0000	2.325E-11	1.222E+9	   19.9704	   20.3850	    6.8922	  -16.7446	
  -75.0000	2.264E-11	1.280E+9	   19.8855	   20.3613	    6.8950	  -16.7571	
  -80.0000	2.212E-11	1.245E+9	   19.8108	   20.3633	    6.8994	  -16.7480	
  -85.0000	2.165E-11	9.486E+8	   19.7774	   20.3595	    6.8865	  -16.7732	
  -90.0000	1.894E-11	6.687E+8	   19.7748	   20.3528	    6.8827	  -16.7847	
  -95.0000	1.858E-11	1.113E+9	   19.8108	   20.3428	    6.8969	  -16.7675	
 -100.0000	1.827E-11	1.123E+9	   19.8726	   20.3464	    6.9010	  -16.7578	
 -105.0000	1.798E-11	1.143E+9	   19.9704	   20.3591	    6.8937	  -16.7610	
 -110.0000	1.771E-11	1.206E+9	   20.0708	   20.3590	    6.8887	  -16.7698	
 -115.0000	1.745E-11	1.289E+9	   20.1763	   20.3602	    6.8956	  -16.7568	
 -120.0000	1.721E-11	1.264E+9	   20.2561	   20.3619	    6.8963	  -16.7545	
 -125.0000	1.699E-11	1.344E+9	   20.3179	   20.3667	    6.8978	  -16.7482	
 -130.0000	1.678E-11	1.336E+9	   20.3179	   20.3667	    6.8978	  -16.7482	
 -135.0000	1.658E-11	1.374E+9	   20.2175	   20.3591	    6.8852	  -16.7757	
 -140.0000	1.639E-11	1.407E+9	   20.1326	   20.3587	    6.8858	  -16.7749	
 -145.0000	1.620E-11	1.450E+9	   20.0296	   20.3534	    6.8725	  -16.8017	
 -150.0000	1.604E-11	1.540E+9	   19.9395	   20.3516	    6.8688	  -16.8096	
 -155.0000	1.588E-11	1.469E+9	   19.8494	   20.3501	    6.8754	  -16.7993	
 -160.0000	1.572E-11	1.463E+9	   19.7877	   20.3416	    6.8659	  -16.8219	
 -165.0000	1.556E-11	1.507E+9	   19.7568	   20.3432	    6.8571	  -16.8361	
 -170.0000	1.542E-11	1.517E+9	   19.7696	   20.3384	    6.8602	  -16.8341	
 -175.0000	1.528E-11	1.462E+9	   19.8211	   20.3463	    6.8656	  -16.8190	
 -180.0000	1.514E-11	1.496E+9	   19.9009	   20.3472	    6.8618	  -16.8249	
 -185.0000	1.500E-11	1.532E+9	   20.0116	   20.3542	    6.8669	  -16.8110	
 -190.0000	1.487E-11	1.563E+9	   20.1403	   20.3597	    6.8656	  -16.8091	
 -195.0000	1.473E-11	1.573E+9	   20.2638	   20.3597	    6.8643	  -16.8113	
 -200.0000	1.461E-11	1.531E+9	   20.3256	   20.3606	    6.8656	  -16.8085	
 -205.0000	1.449E-11	1.585E+9	   20.3488	   20.3666	    6.8665	  -16.8024	
 -210.0000	1.437E-11	1.535E+9	   20.3282	   20.3631	    6.8697	  -16.7996	
 -215.0000	1.426E-11	1.604E+9	   20.2741	   20.3615	    6.8615	  -16.8150	
 -220.0000	1.417E-11	1.616E+9	   20.1969	   20.3606	    6.8567	  -16.8239	
 -225.0000	1.410E-11	1.659E+9	   20.1068	   20.3595	    6.8536	  -16.8301	
 -230.0000	1.404E-11	1.558E+9	   20.0013	   20.3637	    6.8428	  -16.8457	
 -235.0000	1.401E-11	1.580E+9	   20.0013	   20.3637	    6.8428	  -16.8457	
 -240.0000	1.399E-11	1.656E+9	   19.9112	   20.3427	    6.8422	  -16.8622	
 -245.0000	1.397E-11	1.655E+9	   19.7902	   20.3368	    6.8466	  -16.8588	
 -250.0000	1.396E-11	1.655E+9	   19.7748	   20.3355	    6.8416	  -16.8686	
 -255.0000	1.395E-11	1.630E+9	   19.8005	   20.3397	    6.8454	  -16.8589	
 -260.0000	1.394E-11	1.651E+9	   19.8005	   20.3397	    6.8454	  -16.8589	
 -265.0000	1.393E-11	1.693E+9	   19.8983	   20.3347	    6.8514	  -16.8521	
 -270.0000	1.392E-11	1.647E+9	   20.1171	   20.3348	    6.8476	  -16.8586	
 -275.0000	1.392E-11	1.776E+9	   20.2613	   20.3436	    6.8498	  -16.8484	
 -280.0000	1.391E-11	1.630E+9	   20.3282	   20.3422	    6.8555	  -16.8395	
 -285.0000	1.391E-11	1.639E+9	   20.3642	   20.3565	    6.8438	  -16.8493	
 -290.0000	1.390E-11	1.742E+9	   20.3539	   20.3506	    6.8444	  -16.8526	
 -295.0000	1.390E-11	1.715E+9	   20.3050	   20.3549	    6.8463	  -16.8461	
 -300.0000	1.390E-11	1.665E+9	   20.2201	   20.3522	    6.8381	  -16.8624	
 -305.0000	1.390E-11	1.624E+9	   20.1068	   20.3462	    6.8387	  -16.8657	
 -310.0000	1.389E-11	1.650E+9	   19.9987	   20.3317	    6.8283	  -16.8945	
 -315.0000	1.389E-11	1.750E+9	   19.8803	   20.3317	    6.8267	  -16.8972	
 -320.0000	1.389E-11	1.701E+9	   19.8185	   20.3213	    6.8242	  -16.9092	
 -325.0000	1.388E-11	1.720E+9	   19.7774	   20.3238	    6.8273	  -16.9019	
 -330.0000	1.389E-11	1.792E+9	   19.7928	   20.3173	    6.8311	  -16.9001	
 -335.0000	1.388E-11	1.709E+9	   19.8443	   20.3284	    6.8355	  -16.8842	
 -340.0000	1.388E-11	1.791E+9	   19.9241	   20.3434	    6.8340	  -16.8760	
 -345.0000	1.388E-11	1.759E+9	   20.0347	   20.3454	    6.8397	  -16.8646	
 -350.0000	1.388E-11	1.782E+9	   20.1506	   20.3471	    6.8368	  -16.8683	
 -355.0000	1.387E-11	1.692E+9	   20.2587	   20.3380	    6.8400	  -16.8695	
 -360.0000	1.387E-11	1.756E+9	   20.3230	   20.3435	    6.8400	  -16.8654	
 -365.0000	1.387E-11	1.738E+9	   20.3642	   20.3446	    6.8330	  -16.8768	
 -370.0000	1.387E-11	1.752E+9	   20.3488	   20.3484	    6.8365	  -16.8679	
 -375.0000	1.387E-11	1.733E+9	   20.2921	   20.3471	    6.8267	  -16.8859	
 -380.0000	1.387E-11	1.744E+9	   20.2149	   20.3452	    6.8261	  -16.8884	
 -385.0000	1.387E-11	1.812E+9	   20.1145	   20.3266	    6.8305	  -16.8944	
 -390.0000	1.387E-11	1.758E+9	   20.0219	   20.3245	    6.8216	  -16.9113	
 -395.0000	1.386E-11	1.699E+9	   19.9369	   20.3246	    6.8197	  -16.9145	
 -400.0000	1.387E-11	1.702E+9	   19.8623	   20.3174	    6.8216	  -16.9165	
 -410.0000	1.386E-11	1.751E+9	   19.8185	   20.3119	    6.8223	  -16.9194	
 -420.0000	1.386E-11	1.798E+9	   19.8108	   20.3119	    6.8077	  -16.9448	
 -430.0000	1.386E-11	1.821E+9	   19.8417	   20.3171	    6.8232	  -16.9140	
 -440.0000	1.386E-11	1.778E+9	   19.9061	   20.3122	    6.8204	  -16.9225	
 -450.0000	1.386E-11	1.756E+9	   19.9807	   20.3189	    6.8201	  -16.9182	
 -460.0000	1.386E-11	1.852E+9	   20.1248	   20.3125	    6.8308	  -16.9041	
 -470.0000	1.385E-11	1.779E+9	   20.2046	   20.3164	    6.8327	  -16.8980	
 -480.0000	1.385E-11	1.820E+9	   20.2767	   20.3284	    6.8248	  -16.9029	
 -490.0000	1.385E-11	1.781E+9	   20.3127	   20.3295	    6.8210	  -16.9087	
 -500.0000	1.385E-11	1.892E+9	   20.2844	   20.3306	    6.8286	  -16.8947	
 -510.0000	1.385E-11	1.770E+9	   20.1892	   20.3261	    6.8188	  -16.9150	
 -520.0000	1.385E-11	1.806E+9	   20.0811	   20.3189	    6.8251	  -16.9093	
 -530.0000	1.385E-11	1.760E+9	   20.0811	   20.3189	    6.8251	  -16.9093	
 -540.0000	1.385E-11	1.802E+9	   19.9550	   20.3172	    6.8175	  -16.9238	
 -550.0000	1.385E-11	1.737E+9	   19.7799	   20.2979	    6.8093	  -16.9523	
 -560.0000	1.384E-11	1.797E+9	   19.7439	   20.2925	    6.8175	  -16.9419	
 -570.0000	1.385E-11	1.751E+9	   19.7619	   20.3055	    6.8125	  -16.9412	
 -580.0000	1.384E-11	1.819E+9	   19.7619	   20.3055	    6.8125	  -16.9412	
 -590.0000	1.384E-11	1.749E+9	   19.8520	   20.2956	    6.8166	  -16.9413	
 -600.0000	1.384E-11	1.865E+9	   19.9447	   20.2972	    6.8219	  -16.9308	
