GCD Test								
Bias: 5000.000000								
IV_34341_041_PSS_HM_XX_DIODE								
Date/Time: 7/6/2021 1:16:24 PM								
Sensor Name: DIODE								
Type: P								
Annealing Status: Not Irradiated								
Environment: 20C								
Tester: Andrew Kent								
								
Time Delay per Ramp Step (s): 0.500								
								
CV Time Delay per Measurement (s) :0.500								
								
AC Voltage (V): 0.500								
								
Current Number of measurements per voltage: 1.000								
								
IV Time Delay per Measurement (s) :0.000								
								
								
BiasVoltage	Total Current_Avg	Total Current_0	Bias Current_Avg	Bias Current_0	Temperature	Air_Temp	Humidity	Dewpoint
-5	-1.43E-10	-1.43E-10	-1.02E-10	-1.02E-10	19.9241	20.4779	7.6006	-15.4137
-10	-9.00E-11	-9.00E-11	-1.04E-10	-1.04E-10	19.8391	20.4724	7.5459	-15.5101
-15	-8.50E-11	-8.50E-11	-1.03E-10	-1.03E-10	19.8391	20.4675	7.5459	-15.6005
-20	-1.24E-10	-1.24E-10	-1.21E-10	-1.21E-10	19.7774	20.4646	7.4949	-15.684
-25	-1.32E-10	-1.32E-10	-1.17E-10	-1.17E-10	19.7619	20.4687	7.4643	-15.7302
-30	-2.41E-10	-2.41E-10	-1.18E-10	-1.18E-10	19.7799	20.4706	7.4367	-15.7731
-35	-3.14E-10	-3.14E-10	-1.24E-10	-1.24E-10	19.8366	20.4608	7.4096	-15.8243
-40	-2.92E-10	-2.92E-10	-1.23E-10	-1.23E-10	19.9164	20.4728	7.3795	-15.8641
-45	-2.80E-10	-2.80E-10	-1.46E-10	-1.46E-10	20.027	20.4675	7.3615	-15.8974
-50	-3.62E-10	-3.62E-10	-1.45E-10	-1.45E-10	20.1429	20.47	7.3431	-15.9255
-55	-3.80E-10	-3.80E-10	-1.60E-10	-1.60E-10	20.2432	20.4837	7.3166	-15.9587
-60	-2.83E-10	-2.83E-10	-1.65E-10	-1.65E-10	20.3102	20.481	7.3001	-15.9877
-65	-4.51E-10	-4.51E-10	-1.67E-10	-1.67E-10	20.3436	20.4773	7.277	-16.0283
-70	-4.33E-10	-4.33E-10	-1.74E-10	-1.74E-10	20.3333	20.4723	7.265	-16.0518
-75	-4.89E-10	-4.89E-10	-1.74E-10	-1.74E-10	20.2767	20.4849	7.2423	-16.0801
-80	-4.36E-10	-4.36E-10	-1.71E-10	-1.71E-10	20.1995	20.4752	7.2277	-16.1113
-85	-5.19E-10	-5.19E-10	-1.78E-10	-1.78E-10	20.1094	20.4673	7.2024	-16.159
-90	-5.38E-10	-5.38E-10	-1.78E-10	-1.78E-10	20.0064	20.4574	7.1872	-16.1915
-95	-4.93E-10	-4.93E-10	-1.79E-10	-1.79E-10	19.9189	20.4513	7.1847	-16.2003
-100	-4.76E-10	-4.76E-10	-1.82E-10	-1.82E-10	19.8366	20.4446	7.1616	-16.2437
-105	-4.63E-10	-4.63E-10	-1.82E-10	-1.82E-10	19.7877	20.4385	7.1515	-16.265
-110	-5.07E-10	-5.07E-10	-1.86E-10	-1.86E-10	19.7696	20.4421	7.1496	-16.2656
-115	-4.86E-10	-4.86E-10	-1.88E-10	-1.88E-10	19.7825	20.4392	7.1357	-16.291
-120	-4.79E-10	-4.79E-10	-1.93E-10	-1.93E-10	19.8417	20.4449	7.1395	-16.2805
-125	-6.00E-10	-6.00E-10	-1.93E-10	-1.93E-10	19.9318	20.4502	7.1338	-16.286
-130	-5.00E-10	-5.00E-10	-1.96E-10	-1.96E-10	20.0322	20.4586	7.1303	-16.2857
-135	-5.48E-10	-5.48E-10	-2.00E-10	-2.00E-10	20.1506	20.4515	7.123	-16.3031
-140	-5.97E-10	-5.97E-10	-2.01E-10	-2.01E-10	20.2432	20.4536	7.118	-16.3101
-145	-5.65E-10	-5.65E-10	-1.99E-10	-1.99E-10	20.3205	20.4563	7.1015	-16.3357
-150	-5.23E-10	-5.23E-10	-2.02E-10	-2.02E-10	20.3514	20.4527	7.1022	-16.3372
-155	-5.61E-10	-5.61E-10	-1.99E-10	-1.99E-10	20.3359	20.4673	7.0984	-16.3329
-160	-5.32E-10	-5.32E-10	-1.97E-10	-1.97E-10	20.287	20.4497	7.0825	-16.3724
-165	-6.62E-10	-6.62E-10	-1.94E-10	-1.94E-10	20.2098	20.4363	7.0819	-16.3834
-170	-5.89E-10	-5.89E-10	-1.92E-10	-1.92E-10	20.1094	20.4594	7.0753	-16.3776
-175	-5.79E-10	-5.79E-10	-1.92E-10	-1.92E-10	20.0039	20.4623	7.0765	-16.3733
-180	-6.91E-10	-6.91E-10	-1.90E-10	-1.90E-10	19.9138	20.4493	7.0674	-16.3984
-185	-5.72E-10	-5.72E-10	-1.91E-10	-1.91E-10	19.8391	20.4441	7.0557	-16.422
-190	-6.35E-10	-6.35E-10	-1.93E-10	-1.93E-10	19.7851	20.4304	7.0588	-16.4267
-195	-6.65E-10	-6.65E-10	-1.97E-10	-1.97E-10	19.7722	20.4267	7.0544	-16.4369
-200	-6.62E-10	-6.62E-10	-1.99E-10	-1.99E-10	19.7954	20.4164	7.0585	-16.4376
-205	-7.07E-10	-7.07E-10	-2.05E-10	-2.05E-10	19.8597	20.4222	7.0515	-16.445
-210	-7.37E-10	-7.37E-10	-2.08E-10	-2.08E-10	19.9344	20.4274	7.0534	-16.438
-215	-6.91E-10	-6.91E-10	-2.13E-10	-2.13E-10	20.0682	20.4386	7.056	-16.4255
-220	-8.48E-10	-8.48E-10	-2.14E-10	-2.14E-10	20.2664	20.4386	7.0515	-16.4255
-225	-7.62E-10	-7.62E-10	-2.17E-10	-2.17E-10	20.2664	20.4323	7.0515	-16.4376
-230	-7.43E-10	-7.43E-10	-2.19E-10	-2.19E-10	20.3514	20.4419	7.0553	-16.4241
-235	-6.79E-10	-6.79E-10	-2.16E-10	-2.16E-10	20.3925	20.4458	7.0474	-16.4346
-240	-6.73E-10	-6.73E-10	-2.13E-10	-2.13E-10	20.3848	20.4443	7.0433	-16.4427
-245	-7.72E-10	-7.72E-10	-2.12E-10	-2.12E-10	20.2767	20.4443	7.0446	-16.4427
-250	-7.65E-10	-7.65E-10	-2.11E-10	-2.11E-10	20.1789	20.441	7.0389	-16.4429
-255	-7.77E-10	-7.77E-10	-2.08E-10	-2.08E-10	20.0862	20.4302	7.0278	-16.4606
-260	-6.89E-10	-6.89E-10	-2.06E-10	-2.06E-10	20.0862	20.4297	7.0278	-16.4797
-265	-7.41E-10	-7.41E-10	-2.05E-10	-2.05E-10	19.9678	20.4228	7.0218	-16.495
-270	-7.65E-10	-7.65E-10	-2.05E-10	-2.05E-10	19.8932	20.4232	7.0291	-16.4823
-275	-7.75E-10	-7.75E-10	-2.05E-10	-2.05E-10	19.8366	20.411	7.0218	-16.5036
-280	-7.69E-10	-7.69E-10	-2.10E-10	-2.10E-10	19.8134	20.411	7.0231	-16.5036
-285	-8.43E-10	-8.43E-10	-2.11E-10	-2.11E-10	19.8134	20.4188	7.0231	-16.4958
-290	-9.83E-10	-9.83E-10	-2.17E-10	-2.17E-10	19.8597	20.4172	7.0247	-16.4943
-295	-1.00E-09	-1.00E-09	-2.19E-10	-2.19E-10	19.9395	20.4111	7.018	-16.51
-300	-8.71E-10	-8.71E-10	-2.22E-10	-2.22E-10	20.045	20.4192	7.0326	-16.4794
-305	-9.79E-10	-9.79E-10	-2.22E-10	-2.22E-10	20.1789	20.4192	7.0228	-16.4794
-310	-1.02E-09	-1.02E-09	-2.26E-10	-2.26E-10	20.1789	20.4192	7.0228	-16.496
-315	-1.05E-09	-1.05E-09	-2.25E-10	-2.25E-10	20.2973	20.4128	7.0202	-16.505
-320	-9.55E-10	-9.55E-10	-2.25E-10	-2.25E-10	20.2973	20.4128	7.0202	-16.505
-325	-9.26E-10	-9.26E-10	-2.25E-10	-2.25E-10	20.3488	20.4223	7.0152	-16.5066
-330	-9.01E-10	-9.01E-10	-2.22E-10	-2.22E-10	20.3488	20.4192	7.0139	-16.5111
-335	-9.96E-10	-9.96E-10	-2.20E-10	-2.20E-10	20.3102	20.4259	7.0237	-16.4895
-340	-9.33E-10	-9.33E-10	-2.17E-10	-2.17E-10	20.2098	20.4188	7.0025	-16.5307
-345	-9.23E-10	-9.23E-10	-2.17E-10	-2.17E-10	20.0965	20.4188	7.0047	-16.5307
-350	-8.97E-10	-8.97E-10	-2.14E-10	-2.14E-10	20.0965	20.4135	7.0047	-16.5308
-355	-9.66E-10	-9.66E-10	-2.11E-10	-2.11E-10	19.991	20.4043	6.9921	-16.5591
-360	-9.14E-10	-9.14E-10	-2.10E-10	-2.10E-10	19.9035	20.4102	6.9918	-16.5553
-365	-9.36E-10	-9.36E-10	-2.13E-10	-2.13E-10	19.8314	20.4014	6.9899	-16.5651
-370	-9.80E-10	-9.80E-10	-2.14E-10	-2.14E-10	19.7774	20.3949	6.9905	-16.5687
-375	-9.21E-10	-9.21E-10	-2.14E-10	-2.14E-10	19.7774	20.3949	6.9905	-16.5687
-380	-9.78E-10	-9.78E-10	-2.17E-10	-2.17E-10	19.7877	20.4011	6.9766	-16.5879
-385	-1.05E-09	-1.05E-09	-2.21E-10	-2.21E-10	19.8263	20.3965	6.988	-16.5719
-390	-1.23E-09	-1.23E-09	-2.24E-10	-2.24E-10	19.9035	20.3994	6.9949	-16.5579
-395	-1.07E-09	-1.07E-09	-2.26E-10	-2.26E-10	20.0373	20.3994	6.9864	-16.5579
-400	-1.10E-09	-1.10E-09	-2.29E-10	-2.29E-10	20.0373	20.3994	6.9864	-16.5724
-410	-1.22E-09	-1.22E-09	-2.32E-10	-2.32E-10	20.1506	20.3945	6.9836	-16.5809
-420	-1.25E-09	-1.25E-09	-2.33E-10	-2.33E-10	20.2793	20.4128	6.9946	-16.5486
-430	-1.18E-09	-1.18E-09	-2.33E-10	-2.33E-10	20.3385	20.4128	6.9886	-16.5486
-440	-1.23E-09	-1.23E-09	-2.34E-10	-2.34E-10	20.3385	20.4117	6.9886	-16.5596
-450	-1.29E-09	-1.29E-09	-2.30E-10	-2.30E-10	20.3462	20.4167	6.981	-16.5689
-460	-1.36E-09	-1.36E-09	-2.28E-10	-2.28E-10	20.3076	20.4081	6.9836	-16.5709
-470	-1.25E-09	-1.25E-09	-2.26E-10	-2.26E-10	20.2252	20.4005	6.969	-16.6013
-480	-1.34E-09	-1.34E-09	-2.24E-10	-2.24E-10	20.1171	20.4005	6.9709	-16.6013
-490	-1.31E-09	-1.31E-09	-2.22E-10	-2.22E-10	20.1171	20.4008	6.9709	-16.5979
-500	-1.50E-09	-1.50E-09	-2.21E-10	-2.21E-10	20.0039	20.4029	6.9674	-16.6023
-510	-1.40E-09	-1.40E-09	-2.20E-10	-2.20E-10	19.87	20.4029	6.9592	-16.6023
-520	-1.38E-09	-1.38E-09	-2.20E-10	-2.20E-10	19.87	20.4029	6.9592	-16.6163
-530	-1.43E-09	-1.43E-09	-2.22E-10	-2.22E-10	19.8005	20.4004	6.9567	-16.6225
-540	-1.57E-09	-1.57E-09	-2.22E-10	-2.22E-10	19.7645	20.3889	6.9611	-16.6233
-550	-1.57E-09	-1.57E-09	-2.26E-10	-2.26E-10	19.7774	20.3889	6.9494	-16.6233
-560	-1.63E-09	-1.63E-09	-2.29E-10	-2.29E-10	19.7774	20.3885	6.9494	-16.6437
-570	-1.75E-09	-1.75E-09	-2.33E-10	-2.33E-10	19.8443	20.38	6.9526	-16.6445
-580	-1.77E-09	-1.77E-09	-2.37E-10	-2.37E-10	19.9653	20.387	6.9579	-16.6302
-590	-1.74E-09	-1.74E-09	-2.39E-10	-2.39E-10	20.0965	20.387	6.9519	-16.6302
-600	-1.88E-09	-1.88E-09	-2.42E-10	-2.42E-10	20.0965	20.3788	6.9519	-16.6465