GCD Test
Bias: 5000.000000
CV_D0_CO139_LargeDiode_GRConnected_Irradiated_60min
Date/Time: 9/1/2021 2:18:29 PM
Sensor Name: CO139
Type: N
Annealing Status: Irradiated and Annealed at 60C for 60 minutes
Environment: -20C
Tester: Andrew Kent

Time Delay per Ramp Step (s): 0.500

CV Time Delay per Measurement (s) :0.500

AC Voltage (V): 0.500

Current Number of measurements per voltage: 4.000

IV Time Delay per Measurement (s) :0.000


BiasVoltage	LCR_Cp_freq1000.0	LCR_Cp_freq10000.0	LCR_Rp_freq1000.0	LCR_Rp_freq10000.0	Temperature	Air_Temp	Humidity	Dewpoint	
    1.0000	5.201E-11	1.854E-11	3.434E+6	1.745E+6	  -19.9855	    8.7414	    8.8510	  -22.5624	
    2.0000	5.239E-11	1.852E-11	3.459E+6	1.760E+6	  -19.9931	    8.8171	    8.8210	  -22.5430	
    3.0000	5.194E-11	1.854E-11	3.484E+6	1.754E+6	  -20.0008	    8.7932	    8.8175	  -22.5657	
    4.0000	5.199E-11	1.853E-11	3.513E+6	1.764E+6	  -19.9906	    8.7112	    8.8153	  -22.6310	
    5.0000	5.206E-11	1.854E-11	3.532E+6	1.765E+6	  -19.9804	    8.6855	    8.8102	  -22.6571	
    6.0000	5.154E-11	1.853E-11	3.578E+6	1.785E+6	  -19.9728	    8.6940	    8.8261	  -22.6304	
    7.0000	5.148E-11	1.855E-11	3.593E+6	1.779E+6	  -19.9804	    8.6445	    8.8245	  -22.6702	
    8.0000	5.134E-11	1.852E-11	3.626E+6	1.806E+6	  -19.9931	    8.6343	    8.8257	  -22.6763	
    9.0000	5.117E-11	1.854E-11	3.655E+6	1.801E+6	  -20.0008	    8.6653	    8.8251	  -22.6535	
   10.0000	5.092E-11	1.855E-11	3.703E+6	1.801E+6	  -20.0059	    8.6845	    8.8226	  -22.6421	
   20.0000	4.969E-11	1.859E-11	4.119E+6	1.874E+6	  -20.0262	    8.7068	    8.8295	  -22.6162	
   30.0000	4.866E-11	1.862E-11	4.499E+6	1.928E+6	  -20.0364	    8.6609	    8.8368	  -22.6420	
   40.0000	4.722E-11	1.862E-11	4.831E+6	2.015E+6	  -20.0237	    8.6544	    8.8368	  -22.6470	
   50.0000	4.544E-11	1.861E-11	5.202E+6	2.112E+6	  -20.0186	    8.5932	    8.8318	  -22.7001	
   60.0000	4.469E-11	1.861E-11	5.520E+6	2.164E+6	  -20.0084	    8.6145	    8.8593	  -22.6488	
   70.0000	4.361E-11	1.862E-11	5.830E+6	2.210E+6	  -19.9982	    8.6121	    8.8510	  -22.6611	
   80.0000	4.291E-11	1.862E-11	6.084E+6	2.265E+6	  -19.9779	    8.5888	    8.8637	  -22.6628	
   90.0000	4.172E-11	1.859E-11	6.370E+6	2.339E+6	  -19.9779	    8.6422	    8.8719	  -22.6115	
  100.0000	4.078E-11	1.860E-11	6.594E+6	2.390E+6	  -19.9779	    8.6529	    8.8817	  -22.5909	
  120.0000	3.885E-11	1.862E-11	7.150E+6	2.537E+6	  -19.9804	    8.6078	    8.8729	  -22.6366	
  140.0000	3.719E-11	1.866E-11	7.750E+6	2.680E+6	  -19.9931	    8.6257	    8.8798	  -22.6141	
  160.0000	3.584E-11	1.871E-11	8.330E+6	2.837E+6	  -20.0008	    8.6253	    8.8861	  -22.6064	
  180.0000	3.491E-11	1.870E-11	8.654E+6	2.962E+6	  -19.9957	    8.6391	    8.8899	  -22.5911	
  200.0000	3.386E-11	1.873E-11	9.178E+6	3.094E+6	  -20.0059	    8.5111	    8.8830	  -22.6976	
  220.0000	3.308E-11	1.869E-11	9.524E+6	3.227E+6	  -19.9982	    8.5196	    8.8808	  -22.6939	
  240.0000	3.210E-11	1.865E-11	1.003E+7	3.412E+6	  -19.9906	    8.5079	    8.8729	  -22.7129	
  260.0000	3.129E-11	1.862E-11	1.058E+7	3.594E+6	  -20.0008	    8.4783	    8.8738	  -22.7342	
  280.0000	3.057E-11	1.862E-11	1.104E+7	3.811E+6	  -20.0211	    8.5462	    8.8779	  -22.6772	
  300.0000	2.982E-11	1.857E-11	1.156E+7	3.987E+6	  -20.0211	    8.5515	    8.8779	  -22.6731	
  320.0000	2.911E-11	1.851E-11	1.219E+7	4.242E+6	  -20.0186	    8.5309	    8.8782	  -22.6885	
  340.0000	2.851E-11	1.850E-11	1.270E+7	4.520E+6	  -20.0237	    8.5444	    8.8669	  -22.6926	
  360.0000	2.767E-11	1.846E-11	1.343E+7	4.819E+6	  -20.0109	    8.5409	    8.8596	  -22.7046	
  380.0000	2.711E-11	1.843E-11	1.408E+7	5.128E+6	  -20.0186	    8.4638	    8.8577	  -22.7658	
  400.0000	2.642E-11	1.842E-11	1.490E+7	5.470E+6	  -20.0084	    8.4272	    8.8653	  -22.7841	
  420.0000	2.584E-11	1.841E-11	1.564E+7	5.891E+6	  -20.0033	    8.4319	    8.8564	  -22.7917	
  440.0000	2.533E-11	1.835E-11	1.647E+7	6.254E+6	  -20.0059	    8.4445	    8.8463	  -22.7950	
  460.0000	2.466E-11	1.835E-11	1.752E+7	6.842E+6	  -19.9880	    8.3985	    8.8374	  -22.8414	
  480.0000	2.402E-11	1.831E-11	1.893E+7	7.327E+6	  -19.9804	    8.4461	    8.8305	  -22.8140	
  500.0000	2.350E-11	1.829E-11	2.007E+7	7.999E+6	  -19.9830	    8.4660	    8.8400	  -22.7867	
  520.0000	2.289E-11	1.826E-11	2.167E+7	8.725E+6	  -19.9804	    8.5015	    8.8393	  -22.7604	
  540.0000	2.238E-11	1.826E-11	2.325E+7	9.546E+6	  -19.9830	    8.4957	    8.8362	  -22.7689	
  560.0000	2.190E-11	1.825E-11	2.505E+7	1.033E+7	  -19.9702	    8.4395	    8.8457	  -22.7997	
  580.0000	2.137E-11	1.825E-11	2.685E+7	1.128E+7	  -19.9677	    8.4446	    8.8463	  -22.7950	
  600.0000	2.097E-11	1.823E-11	2.862E+7	1.188E+7	  -19.9702	    8.4350	    8.8510	  -22.7963	
  620.0000	2.064E-11	1.824E-11	3.019E+7	1.267E+7	  -20.0008	    8.4562	    8.8593	  -22.7696	
  640.0000	2.046E-11	1.825E-11	3.130E+7	1.313E+7	  -20.0008	    8.4742	    8.8564	  -22.7595	
  660.0000	2.042E-11	1.825E-11	3.227E+7	1.316E+7	  -20.0211	    8.4529	    8.8498	  -22.7842	
  680.0000	2.035E-11	1.826E-11	3.282E+7	1.286E+7	  -20.0364	    8.3876	    8.8428	  -22.8429	
  700.0000	2.038E-11	1.833E-11	3.299E+7	1.240E+7	  -20.0491	    8.4507	    8.8539	  -22.7807	
  720.0000	2.049E-11	1.839E-11	3.239E+7	1.172E+7	  -20.0440	    8.4136	    8.8444	  -22.8210	
  740.0000	2.048E-11	1.845E-11	3.165E+7	1.118E+7	  -20.0440	    8.4414	    8.8444	  -22.7998	
  760.0000	2.051E-11	1.854E-11	3.072E+7	1.061E+7	  -20.0262	    8.4414	    8.8365	  -22.8098	
  780.0000	2.085E-11	1.868E-11	2.870E+7	1.013E+7	  -20.0084	    8.4120	    8.8390	  -22.8291	
  800.0000	2.100E-11	1.877E-11	2.683E+7	9.505E+6	  -20.0084	    8.4344	    8.8242	  -22.8309	
  820.0000	2.131E-11	1.890E-11	2.520E+7	8.984E+6	  -20.0008	    8.4033	    8.8169	  -22.8639	
  840.0000	2.165E-11	1.898E-11	2.353E+7	8.409E+6	  -19.9906	    8.4289	    8.8207	  -22.8395	
  860.0000	2.195E-11	1.909E-11	2.189E+7	7.864E+6	  -19.9728	    8.2822	    8.8121	  -22.9624	
  880.0000	2.238E-11	1.925E-11	2.034E+7	7.460E+6	  -19.9601	    8.2666	    8.8144	  -22.9715	
  900.0000	2.276E-11	1.932E-11	1.928E+7	7.030E+6	  -19.9575	    8.2540	    8.8128	  -22.9832	
  920.0000	2.322E-11	1.944E-11	1.748E+7	6.632E+6	  -19.9677	    8.3135	    8.8061	  -22.9462	
  940.0000	2.347E-11	1.959E-11	1.673E+7	6.345E+6	  -19.9753	    8.3045	    8.8109	  -22.9470	
  960.0000	2.389E-11	1.973E-11	1.601E+7	6.000E+6	  -19.9779	    8.3026	    8.8042	  -22.9569	
  980.0000	2.425E-11	1.987E-11	1.522E+7	5.693E+6	  -19.9931	    8.2600	    8.8030	  -22.9911	
 1000.0000	2.470E-11	2.002E-11	1.428E+7	5.432E+6	  -20.0211	    8.2562	    8.7846	  -23.0173	
 1020.0000	2.523E-11	2.012E-11	1.383E+7	5.213E+6	  -20.0211	    8.2646	    8.7906	  -23.0033	
 1040.0000	2.563E-11	2.027E-11	1.311E+7	4.944E+6	  -20.0465	    8.2823	    8.7805	  -23.0027	
 1060.0000	2.612E-11	2.043E-11	1.278E+7	4.771E+6	  -20.0542	    8.3132	    8.7606	  -23.0047	
 1080.0000	2.669E-11	2.062E-11	1.185E+7	4.555E+6	  -20.0186	    8.2773	    8.7742	  -23.0147	
 1100.0000	2.685E-11	2.080E-11	1.153E+7	4.382E+6	  -20.0084	    8.2724	    8.7660	  -23.0289	
