GCD Test
Bias: 5000.000000
CV_D0_CO140_LargeDiode_GRConnected_Irradiated_70min
Date/Time: 9/17/2021 1:10:47 PM
Sensor Name: CO140
Type: N
Annealing Status: Irradiated and Annealed at 60C for 70 min
Environment: -20C
Tester: Andrew Kent

Time Delay per Ramp Step (s): 0.500

CV Time Delay per Measurement (s) :0.500

AC Voltage (V): 0.500

Current Number of measurements per voltage: 4.000

IV Time Delay per Measurement (s) :0.000


BiasVoltage	LCR_Cp_freq1000.0	LCR_Cp_freq10000.0	LCR_Rp_freq1000.0	LCR_Rp_freq10000.0	Temperature	Air_Temp	Humidity	Dewpoint	
    1.0000	2.447E-11	1.828E-11	1.891E+6	1.799E+6	  -19.8456	    9.1487	    7.1433	  -24.6495	
    2.0000	2.836E-11	1.834E-11	1.959E+6	1.824E+6	  -19.9423	    9.0888	    7.0753	  -24.7998	
    3.0000	3.078E-11	1.838E-11	2.019E+6	1.841E+6	  -19.9753	    9.0712	    6.9554	  -25.0015	
    4.0000	3.257E-11	1.841E-11	2.065E+6	1.853E+6	  -19.9880	    9.1439	    6.9073	  -25.0239	
    5.0000	3.398E-11	1.844E-11	2.114E+6	1.847E+6	  -19.9982	    9.1577	    6.8112	  -25.1681	
    6.0000	3.524E-11	1.846E-11	2.143E+6	1.862E+6	  -19.9880	    9.1185	    6.7676	  -25.2679	
    7.0000	3.627E-11	1.848E-11	2.175E+6	1.874E+6	  -19.9702	    9.1160	    6.7182	  -25.3502	
    8.0000	3.695E-11	1.850E-11	2.221E+6	1.871E+6	  -19.9499	    9.1548	    6.6309	  -25.4651	
    9.0000	3.776E-11	1.852E-11	2.251E+6	1.874E+6	  -19.9423	    9.1154	    6.5765	  -25.5846	
   10.0000	3.829E-11	1.854E-11	2.291E+6	1.892E+6	  -19.9372	    9.0747	    6.5206	  -25.7084	
   20.0000	4.137E-11	1.865E-11	2.651E+6	1.988E+6	  -19.9473	    9.0780	    6.4807	  -25.7731	
   30.0000	4.212E-11	1.873E-11	2.964E+6	2.058E+6	  -19.9550	    9.0991	    6.3751	  -25.9373	
   40.0000	4.208E-11	1.879E-11	3.249E+6	2.144E+6	  -19.9702	    9.0976	    6.3280	  -26.0194	
   50.0000	4.185E-11	1.883E-11	3.506E+6	2.206E+6	  -19.9804	    9.0292	    6.2903	  -26.1349	
   60.0000	4.130E-11	1.885E-11	3.763E+6	2.293E+6	  -20.0135	    9.0133	    6.2065	  -26.2928	
   70.0000	4.074E-11	1.887E-11	4.005E+6	2.362E+6	  -20.0186	    9.0548	    6.1834	  -26.3029	
   80.0000	4.017E-11	1.890E-11	4.234E+6	2.418E+6	  -20.0262	    9.0497	    6.1297	  -26.4017	
   90.0000	3.960E-11	1.892E-11	4.457E+6	2.479E+6	  -20.0237	    8.9929	    6.0579	  -26.5715	
  100.0000	3.895E-11	1.892E-11	4.683E+6	2.556E+6	  -20.0237	    8.9800	    6.0417	  -26.6099	
  120.0000	3.790E-11	1.895E-11	5.104E+6	2.672E+6	  -20.0211	    8.9613	    6.0054	  -26.6892	
  140.0000	3.684E-11	1.894E-11	5.504E+6	2.817E+6	  -20.0135	    8.9631	    5.9579	  -26.7739	
  160.0000	3.598E-11	1.892E-11	5.869E+6	2.955E+6	  -20.0033	    9.0089	    5.9273	  -26.7963	
  180.0000	3.502E-11	1.891E-11	6.255E+6	3.092E+6	  -19.9702	    9.0089	    5.8994	  -26.8473	
  200.0000	3.416E-11	1.888E-11	6.625E+6	3.256E+6	  -19.9702	    8.9672	    5.8707	  -26.9309	
  220.0000	3.338E-11	1.885E-11	6.986E+6	3.409E+6	  -19.9728	    8.9688	    5.8387	  -26.9887	
  240.0000	3.264E-11	1.881E-11	7.352E+6	3.594E+6	  -19.9880	    8.9688	    5.8172	  -27.0286	
  260.0000	3.186E-11	1.876E-11	7.703E+6	3.781E+6	  -19.9931	    8.9317	    5.8017	  -27.0846	
  280.0000	3.115E-11	1.872E-11	8.089E+6	3.985E+6	  -19.9982	    8.9317	    5.7600	  -27.1626	
  300.0000	3.050E-11	1.868E-11	8.487E+6	4.185E+6	  -20.0059	    8.9053	    5.7688	  -27.1653	
  320.0000	2.988E-11	1.864E-11	8.879E+6	4.423E+6	  -20.0237	    8.9022	    5.7460	  -27.2103	
  340.0000	2.932E-11	1.860E-11	9.286E+6	4.661E+6	  -20.0389	    8.9386	    5.7264	  -27.2207	
  360.0000	2.877E-11	1.856E-11	9.710E+6	4.927E+6	  -20.0415	    8.9360	    5.7151	  -27.2441	
  380.0000	2.821E-11	1.853E-11	1.017E+7	5.221E+6	  -20.0338	    8.9809	    5.6803	  -27.2772	
  400.0000	2.762E-11	1.849E-11	1.069E+7	5.551E+6	  -20.0262	    8.9877	    5.6499	  -27.3301	
  420.0000	2.711E-11	1.846E-11	1.122E+7	5.909E+6	  -20.0084	    9.0513	    5.6094	  -27.3613	
  440.0000	2.656E-11	1.843E-11	1.184E+7	6.283E+6	  -19.9804	    8.9238	    5.5778	  -27.5151	
  460.0000	2.593E-11	1.839E-11	1.261E+7	6.806E+6	  -19.9779	    8.9060	    5.5440	  -27.5935	
  480.0000	2.537E-11	1.836E-11	1.340E+7	7.373E+6	  -19.9830	    8.8839	    5.5285	  -27.6396	
  500.0000	2.485E-11	1.832E-11	1.423E+7	7.974E+6	  -19.9880	    8.9531	    5.4981	  -27.6486	
  520.0000	2.427E-11	1.828E-11	1.527E+7	8.661E+6	  -19.9702	    8.9406	    5.4791	  -27.6948	
  540.0000	2.374E-11	1.825E-11	1.636E+7	9.475E+6	  -19.9804	    8.9652	    5.4750	  -27.6850	
  560.0000	2.322E-11	1.822E-11	1.763E+7	1.032E+7	  -20.0008	    8.9278	    5.4595	  -27.7427	
  580.0000	2.271E-11	1.820E-11	1.906E+7	1.124E+7	  -20.0059	    8.9168	    5.4333	  -27.8024	
  600.0000	2.222E-11	1.818E-11	2.073E+7	1.235E+7	  -20.0135	    8.9443	    5.4266	  -27.7956	
  620.0000	2.177E-11	1.816E-11	2.259E+7	1.354E+7	  -20.0135	    8.9424	    5.3975	  -27.8547	
  640.0000	2.132E-11	1.815E-11	2.481E+7	1.492E+7	  -20.0109	    8.9301	    5.3836	  -27.8913	
  660.0000	2.095E-11	1.814E-11	2.719E+7	1.643E+7	  -20.0084	    8.9278	    5.3393	  -27.9815	
  680.0000	2.059E-11	1.812E-11	3.009E+7	1.828E+7	  -20.0084	    8.8831	    5.3305	  -28.0317	
  700.0000	2.026E-11	1.811E-11	3.342E+7	2.021E+7	  -20.0033	    8.9110	    5.3172	  -28.0382	
  720.0000	1.995E-11	1.810E-11	3.741E+7	2.256E+7	  -19.9982	    8.9449	    5.2663	  -28.1167	
  740.0000	1.971E-11	1.809E-11	4.171E+7	2.505E+7	  -20.0033	    8.9028	    5.2369	  -28.2072	
  760.0000	1.947E-11	1.808E-11	4.689E+7	2.787E+7	  -20.0109	    8.9527	    5.2170	  -28.2119	
  780.0000	1.930E-11	1.807E-11	5.242E+7	3.097E+7	  -20.0008	    8.9675	    5.1904	  -28.2557	
  800.0000	1.912E-11	1.806E-11	5.833E+7	3.451E+7	  -19.9957	    9.0058	    5.1410	  -28.3302	
  820.0000	1.898E-11	1.805E-11	6.448E+7	3.824E+7	  -19.9957	    8.9869	    5.1373	  -28.3517	
  840.0000	1.887E-11	1.804E-11	7.044E+7	4.201E+7	  -19.9855	    8.9671	    5.1015	  -28.4406	
  860.0000	1.877E-11	1.803E-11	7.689E+7	4.612E+7	  -19.9855	    8.9419	    5.0636	  -28.5384	
  880.0000	1.868E-11	1.802E-11	8.269E+7	5.006E+7	  -19.9830	    8.8597	    5.0405	  -28.6463	
  900.0000	1.861E-11	1.802E-11	8.697E+7	5.411E+7	  -20.0059	    8.8014	    5.0247	  -28.7217	
  920.0000	1.853E-11	1.801E-11	9.119E+7	5.762E+7	  -20.0059	    8.8449	    4.9991	  -28.7448	
  940.0000	1.848E-11	1.800E-11	9.400E+7	6.137E+7	  -20.0008	    8.8544	    4.9589	  -28.8238	
  960.0000	1.842E-11	1.800E-11	9.747E+7	6.455E+7	  -19.9982	    8.8322	    4.9459	  -28.8676	
  980.0000	1.837E-11	1.799E-11	9.934E+7	6.772E+7	  -20.0109	    8.7865	    4.9257	  -28.9441	
 1000.0000	1.833E-11	1.799E-11	1.022E+8	7.123E+7	  -19.9906	    8.8019	    4.9029	  -28.9822	
 1020.0000	1.829E-11	1.798E-11	1.045E+8	7.360E+7	  -20.0008	    8.7503	    4.8795	  -29.0700	
 1040.0000	1.826E-11	1.798E-11	1.061E+8	7.582E+7	  -20.0033	    8.7583	    4.8748	  -29.0746	
 1060.0000	1.823E-11	1.798E-11	1.070E+8	7.827E+7	  -20.0084	    8.8421	    4.8498	  -29.0690	
 1080.0000	1.820E-11	1.797E-11	1.084E+8	8.031E+7	  -20.0059	    8.8000	    4.8188	  -29.1672	
 1100.0000	1.818E-11	1.797E-11	1.096E+8	8.166E+7	  -20.0084	    8.8095	    4.8055	  -29.1896	
