38875_004_2-S_HM_XX_Irrad_20min
Date/Time: 4/22/2022 3:35:49 PM
Sensor Name: 38875_004_2-S_HM_XX
Station: Tesla
Annealing Status: 20 min
Environment: -20C
Tester: Eric Spencer
Notes: Irradiated at RINSC

Time Delay per Ramp Step (s): 1.000

CV Time Delay per Measurement (s) :0.500

AC Voltage (V): 0.500

Current Number of measurements per voltage: 4.000

IV Time Delay per Measurement (s) :0.500


BiasVoltage	LCR_Cp_freq1	LCR_G_freq1	Temperature	Air_Temp	Humidity	Dewpoint	
  -10.0000	1.705E-10	1.390E-6	  -20.0000	   23.7259	    1.6816	    0.0000	
  -20.0000	1.674E-10	1.053E-6	  -20.0000	   23.7259	    1.6816	    0.0000	
  -30.0000	1.593E-10	8.610E-7	  -20.0000	   23.7259	    1.6816	    0.0000	
  -40.0000	1.512E-10	7.365E-7	  -20.0000	   23.7259	    1.6816	    0.0000	
  -50.0000	1.443E-10	6.452E-7	  -20.0000	   23.7259	    1.6816	    0.0000	
  -60.0000	1.380E-10	5.772E-7	  -20.0000	   23.7259	    1.6816	    0.0000	
  -70.0000	1.327E-10	5.224E-7	  -20.0000	   23.7259	    1.6816	    0.0000	
  -80.0000	1.275E-10	4.802E-7	  -20.0000	   23.7259	    1.6816	    0.0000	
  -90.0000	1.233E-10	4.409E-7	  -20.0000	   23.7259	    1.6816	    0.0000	
 -100.0000	1.193E-10	4.128E-7	  -20.0000	   23.7259	    1.6816	    0.0000	
 -110.0000	1.159E-10	3.846E-7	  -20.0000	   23.7259	    1.6816	    0.0000	
 -120.0000	1.123E-10	3.649E-7	  -20.0000	   23.7259	    1.6816	    0.0000	
 -130.0000	1.096E-10	3.429E-7	  -20.0000	   23.7259	    1.6816	    0.0000	
 -140.0000	1.064E-10	3.270E-7	  -20.0000	   23.7259	    1.6816	    0.0000	
 -150.0000	1.036E-10	3.124E-7	  -20.0000	   23.7259	    1.6816	    0.0000	
 -160.0000	1.014E-10	2.981E-7	  -20.0000	   23.7259	    1.6816	    0.0000	
 -170.0000	9.896E-11	2.812E-7	  -20.0000	   23.7259	    1.6816	    0.0000	
 -180.0000	9.673E-11	2.720E-7	  -20.0000	   23.7259	    1.6816	    0.0000	
 -190.0000	9.456E-11	2.633E-7	  -20.0000	   23.7259	    1.6816	    0.0000	
 -200.0000	9.237E-11	2.508E-7	  -20.0000	   23.7259	    1.6816	    0.0000	
 -210.0000	9.094E-11	2.413E-7	  -20.0000	   23.7259	    1.6816	    0.0000	
 -220.0000	8.969E-11	2.281E-7	  -20.0000	   23.7259	    1.6816	    0.0000	
 -230.0000	8.732E-11	2.212E-7	  -20.0000	   23.7259	    1.6816	    0.0000	
 -240.0000	8.652E-11	2.109E-7	  -20.0000	   23.7259	    1.6816	    0.0000	
 -250.0000	8.412E-11	2.045E-7	  -20.0000	   23.7259	    1.6816	    0.0000	
 -260.0000	8.281E-11	1.976E-7	  -20.0000	   23.7259	    1.6816	    0.0000	
 -270.0000	8.123E-11	1.907E-7	  -20.0000	   23.7259	    1.6816	    0.0000	
 -280.0000	7.982E-11	1.813E-7	  -20.0000	   23.7259	    1.6816	    0.0000	
 -290.0000	7.844E-11	1.708E-7	  -20.0000	   23.7259	    1.6816	    0.0000	
 -300.0000	7.736E-11	1.667E-7	  -20.0000	   23.7259	    1.6816	    0.0000	
 -310.0000	7.593E-11	1.576E-7	  -20.0000	   23.7259	    1.6816	    0.0000	
 -320.0000	7.452E-11	1.508E-7	  -20.0000	   23.7259	    1.6816	    0.0000	
 -330.0000	7.290E-11	1.466E-7	  -20.0000	   23.7259	    1.6816	    0.0000	
 -340.0000	7.192E-11	1.402E-7	  -20.0000	   23.7259	    1.6816	    0.0000	
 -350.0000	7.040E-11	1.315E-7	  -20.0000	   23.7259	    1.6816	    0.0000	
 -360.0000	6.967E-11	1.295E-7	  -20.0000	   23.7259	    1.6816	    0.0000	
 -370.0000	6.743E-11	1.166E-7	  -20.0000	   23.7259	    1.6816	    0.0000	
 -380.0000	6.686E-11	1.170E-7	  -20.0000	   23.7259	    1.6816	    0.0000	
 -390.0000	6.552E-11	1.115E-7	  -20.0000	   23.7259	    1.6816	    0.0000	
 -400.0000	6.469E-11	1.009E-7	  -20.0000	   23.7259	    1.6816	    0.0000	
 -410.0000	6.304E-11	9.723E-8	  -20.0000	   23.7259	    1.6816	    0.0000	
 -420.0000	6.164E-11	9.195E-8	  -20.0000	   23.7259	    1.6816	    0.0000	
 -430.0000	6.129E-11	8.478E-8	  -20.0000	   23.7259	    1.6816	    0.0000	
 -440.0000	6.070E-11	7.348E-8	  -20.0000	   23.7259	    1.6816	    0.0000	
 -450.0000	5.907E-11	7.492E-8	  -20.0000	   23.7259	    1.6816	    0.0000	
 -460.0000	5.839E-11	7.059E-8	  -20.0000	   23.7259	    1.6816	    0.0000	
 -470.0000	5.730E-11	6.324E-8	  -20.0000	   23.7259	    1.6816	    0.0000	
 -480.0000	5.748E-11	6.793E-8	  -20.0000	   23.7259	    1.6816	    0.0000	
 -490.0000	5.674E-11	5.547E-8	  -20.0000	   23.7259	    1.6816	    0.0000	
 -500.0000	5.630E-11	5.519E-8	  -20.0000	   23.7259	    1.6816	    0.0000	
 -510.0000	5.698E-11	4.852E-8	  -20.0000	   23.7259	    1.6816	    0.0000	
 -520.0000	5.632E-11	4.244E-8	  -20.0000	   23.7259	    1.6816	    0.0000	
 -530.0000	5.520E-11	4.324E-8	  -20.0000	   23.7259	    1.6816	    0.0000	
 -540.0000	5.433E-11	3.785E-8	  -20.0000	   23.7259	    1.6816	    0.0000	
 -550.0000	5.524E-11	3.243E-8	  -20.0000	   23.7259	    1.6816	    0.0000	
 -560.0000	5.403E-11	3.438E-8	  -20.0000	   23.7259	    1.6816	    0.0000	
 -570.0000	5.448E-11	3.340E-8	  -20.0000	   23.7259	    1.6816	    0.0000	
 -580.0000	5.296E-11	3.239E-8	  -20.0000	   23.7259	    1.6816	    0.0000	
 -590.0000	5.368E-11	3.045E-8	  -20.0000	   23.7259	    1.6816	    0.0000	
 -600.0000	5.340E-11	2.425E-8	  -20.0000	   23.7259	    1.6816	    0.0000	
 -610.0000	5.371E-11	2.678E-8	  -20.0000	   23.7259	    1.6816	    0.0000	
 -620.0000	5.344E-11	2.063E-8	  -20.0000	   23.7259	    1.6816	    0.0000	
 -630.0000	5.317E-11	2.497E-8	  -20.0000	   23.7259	    1.6816	    0.0000	
 -640.0000	5.374E-11	2.536E-8	  -20.0000	   23.7259	    1.6816	    0.0000	
 -650.0000	5.345E-11	2.507E-8	  -20.0000	   23.7259	    1.6816	    0.0000	
 -660.0000	5.299E-11	2.031E-8	  -20.0000	   23.7259	    1.6816	    0.0000	
 -670.0000	5.261E-11	2.301E-8	  -20.0000	   23.7259	    1.6816	    0.0000	
 -680.0000	5.291E-11	2.404E-8	  -20.0000	   23.7259	    1.6816	    0.0000	
 -690.0000	5.302E-11	2.319E-8	  -20.0000	   23.7259	    1.6816	    0.0000	
 -700.0000	5.327E-11	2.102E-8	  -20.0000	   23.7259	    1.6816	    0.0000	
 -710.0000	5.237E-11	2.628E-8	  -20.0000	   23.7259	    1.6816	    0.0000	
 -720.0000	5.183E-11	2.531E-8	  -20.0000	   23.7259	    1.6816	    0.0000	
 -730.0000	5.318E-11	2.024E-8	  -20.0000	   23.7259	    1.6816	    0.0000	
 -740.0000	5.243E-11	2.005E-8	  -20.0000	   23.7259	    1.6816	    0.0000	
 -750.0000	5.211E-11	1.937E-8	  -20.0000	   23.7259	    1.6816	    0.0000	
 -760.0000	5.230E-11	1.836E-8	  -20.0000	   23.7259	    1.6816	    0.0000	
 -770.0000	5.313E-11	1.653E-8	  -20.0000	   23.7259	    1.6816	    0.0000	
 -780.0000	5.186E-11	2.562E-8	  -20.0000	   23.7259	    1.6816	    0.0000	
 -790.0000	5.345E-11	2.245E-8	  -20.0000	   23.7259	    1.6816	    0.0000	
 -800.0000	5.286E-11	2.526E-8	  -20.0000	   23.7259	    1.6816	    0.0000	
 -810.0000	5.277E-11	2.056E-8	  -20.0000	   23.7259	    1.6816	    0.0000	
 -820.0000	5.189E-11	1.789E-8	  -20.0000	   23.7259	    1.6816	    0.0000	
 -830.0000	5.258E-11	2.061E-8	  -20.0000	   23.7259	    1.6816	    0.0000	
 -840.0000	5.254E-11	2.431E-8	  -20.0000	   23.7259	    1.6816	    0.0000	
 -850.0000	5.232E-11	2.007E-8	  -20.0000	   23.7259	    1.6816	    0.0000	
 -860.0000	5.367E-11	1.483E-8	  -20.0000	   23.7259	    1.6816	    0.0000	
 -870.0000	5.251E-11	2.060E-8	  -20.0000	   23.7259	    1.6816	    0.0000	
 -880.0000	5.249E-11	2.670E-8	  -20.0000	   23.7259	    1.6816	    0.0000	
 -890.0000	5.228E-11	1.772E-8	  -20.0000	   23.7259	    1.6816	    0.0000	
 -900.0000	5.221E-11	1.653E-8	  -20.0000	   23.7259	    1.6816	    0.0000	
 -910.0000	5.209E-11	1.952E-8	  -20.0000	   23.7259	    1.6816	    0.0000	
 -920.0000	5.186E-11	2.224E-8	  -20.0000	   23.7259	    1.6816	    0.0000	
 -930.0000	5.140E-11	2.016E-8	  -20.0000	   23.7259	    1.6816	    0.0000	
 -940.0000	5.249E-11	2.030E-8	  -20.0000	   23.7259	    1.6816	    0.0000	
 -950.0000	5.301E-11	1.828E-8	  -20.0000	   23.7259	    1.6816	    0.0000	
 -960.0000	5.123E-11	1.562E-8	  -20.0000	   23.7259	    1.6816	    0.0000	
 -970.0000	5.350E-11	2.075E-8	  -20.0000	   23.7259	    1.6816	    0.0000	
 -980.0000	5.207E-11	1.602E-8	  -20.0000	   23.7259	    1.6816	    0.0000	
 -990.0000	5.143E-11	2.057E-8	  -20.0000	   23.7259	    1.6816	    0.0000	
-1000.0000	5.246E-11	1.977E-8	  -20.0000	   23.7259	    1.6816	    0.0000	
