34343_036_PSS_HM_X_Irrad_Single
Date/Time: 10/5/2021 2:36:33 PM
Sensor Name: 34343_036_PSS_HM_XX
Type: P
Annealing Status: 1100 min
Environment: -20.0C
Tester: Eric Spencer
Notes: Irradiated to 4e14 at RINSC and after Alibava

Time Delay per Ramp Step (s): 1.000

CV Time Delay per Measurement (s) :0.500

AC Voltage (V): 0.500

Current Number of measurements per voltage: 4.000

IV Time Delay per Measurement (s) :0.500


BiasVoltage	LCR_Cp_freq1	LCR_G_freq1	Temperature	Air_Temp	Humidity	Dewpoint	
  -10.0000	1.723E-10	1.662E-6	  -20.0000	   25.1084	    1.5132	    0.0000	
  -20.0000	1.779E-10	1.368E-6	  -20.0000	   25.1084	    1.5132	    0.0000	
  -30.0000	1.755E-10	1.182E-6	  -20.0000	   25.1084	    1.5132	    0.0000	
  -40.0000	1.708E-10	1.047E-6	  -20.0000	   25.1084	    1.5132	    0.0000	
  -50.0000	1.650E-10	9.345E-7	  -20.0000	   25.1084	    1.5132	    0.0000	
  -60.0000	1.598E-10	8.448E-7	  -20.0000	   25.1084	    1.5132	    0.0000	
  -70.0000	1.550E-10	7.688E-7	  -20.0000	   25.1084	    1.5132	    0.0000	
  -80.0000	1.508E-10	7.096E-7	  -20.0000	   25.1084	    1.5132	    0.0000	
  -90.0000	1.466E-10	6.591E-7	  -20.0000	   25.1084	    1.5132	    0.0000	
 -100.0000	1.428E-10	6.184E-7	  -20.0000	   25.1084	    1.5132	    0.0000	
 -110.0000	1.388E-10	5.855E-7	  -20.0000	   25.1084	    1.5132	    0.0000	
 -120.0000	1.354E-10	5.462E-7	  -20.0000	   25.1084	    1.5132	    0.0000	
 -130.0000	1.320E-10	5.233E-7	  -20.0000	   25.1084	    1.5132	    0.0000	
 -140.0000	1.290E-10	4.959E-7	  -20.0000	   25.1084	    1.5132	    0.0000	
 -150.0000	1.259E-10	4.704E-7	  -20.0000	   25.1084	    1.5132	    0.0000	
 -160.0000	1.236E-10	4.462E-7	  -20.0000	   25.1084	    1.5132	    0.0000	
 -170.0000	1.213E-10	4.250E-7	  -20.0000	   25.1084	    1.5132	    0.0000	
 -180.0000	1.193E-10	4.040E-7	  -20.0000	   25.1084	    1.5132	    0.0000	
 -190.0000	1.172E-10	3.898E-7	  -20.0000	   25.1084	    1.5132	    0.0000	
 -200.0000	1.163E-10	3.798E-7	  -20.0000	   25.1084	    1.5132	    0.0000	
 -210.0000	1.142E-10	3.629E-7	  -20.0000	   25.1084	    1.5132	    0.0000	
 -220.0000	1.126E-10	3.527E-7	  -20.0000	   25.1084	    1.5132	    0.0000	
 -230.0000	1.112E-10	3.344E-7	  -20.0000	   25.1084	    1.5132	    0.0000	
 -240.0000	1.101E-10	3.322E-7	  -20.0000	   25.1084	    1.5132	    0.0000	
 -250.0000	1.087E-10	3.157E-7	  -20.0000	   25.1084	    1.5132	    0.0000	
 -260.0000	1.068E-10	3.084E-7	  -20.0000	   25.1084	    1.5132	    0.0000	
 -270.0000	1.060E-10	3.062E-7	  -20.0000	   25.1084	    1.5132	    0.0000	
 -280.0000	1.058E-10	2.871E-7	  -20.0000	   25.1084	    1.5132	    0.0000	
 -290.0000	1.029E-10	2.846E-7	  -20.0000	   25.1084	    1.5132	    0.0000	
 -300.0000	1.032E-10	2.826E-7	  -20.0000	   25.1084	    1.5132	    0.0000	
 -310.0000	1.020E-10	2.744E-7	  -20.0000	   25.1084	    1.5132	    0.0000	
 -320.0000	1.002E-10	2.644E-7	  -20.0000	   25.1084	    1.5132	    0.0000	
 -330.0000	9.902E-11	2.563E-7	  -20.0000	   25.1084	    1.5132	    0.0000	
 -340.0000	9.670E-11	2.542E-7	  -20.0000	   25.1084	    1.5132	    0.0000	
 -350.0000	9.566E-11	2.449E-7	  -20.0000	   25.1084	    1.5132	    0.0000	
 -360.0000	9.639E-11	2.376E-7	  -20.0000	   25.1084	    1.5132	    0.0000	
 -370.0000	9.317E-11	2.407E-7	  -20.0000	   25.1084	    1.5132	    0.0000	
 -380.0000	9.451E-11	2.250E-7	  -20.0000	   25.1084	    1.5132	    0.0000	
 -390.0000	9.152E-11	2.253E-7	  -20.0000	   25.1084	    1.5132	    0.0000	
 -400.0000	9.186E-11	2.124E-7	  -20.0000	   25.1084	    1.5132	    0.0000	
 -410.0000	9.046E-11	2.237E-7	  -20.0000	   25.1084	    1.5132	    0.0000	
 -420.0000	8.989E-11	2.080E-7	  -20.0000	   25.1084	    1.5132	    0.0000	
 -430.0000	8.778E-11	1.975E-7	  -20.0000	   25.1084	    1.5132	    0.0000	
 -440.0000	8.779E-11	1.930E-7	  -20.0000	   25.1084	    1.5132	    0.0000	
 -450.0000	8.718E-11	1.938E-7	  -20.0000	   25.1084	    1.5132	    0.0000	
 -460.0000	8.578E-11	1.779E-7	  -20.0000	   25.1084	    1.5132	    0.0000	
 -470.0000	8.440E-11	1.778E-7	  -20.0000	   25.1084	    1.5132	    0.0000	
 -480.0000	8.406E-11	1.852E-7	  -20.0000	   25.1084	    1.5132	    0.0000	
 -490.0000	8.305E-11	1.705E-7	  -20.0000	   25.1084	    1.5132	    0.0000	
 -500.0000	8.265E-11	1.615E-7	  -20.0000	   25.1084	    1.5132	    0.0000	
 -510.0000	7.971E-11	1.517E-7	  -20.0000	   25.1084	    1.5132	    0.0000	
 -520.0000	8.038E-11	1.529E-7	  -20.0000	   25.1084	    1.5132	    0.0000	
 -530.0000	7.939E-11	1.520E-7	  -20.0000	   25.1084	    1.5132	    0.0000	
 -540.0000	7.731E-11	1.408E-7	  -20.0000	   25.1084	    1.5132	    0.0000	
 -550.0000	7.654E-11	1.412E-7	  -20.0000	   25.1084	    1.5132	    0.0000	
 -560.0000	7.658E-11	1.280E-7	  -20.0000	   25.1084	    1.5132	    0.0000	
 -570.0000	7.625E-11	1.190E-7	  -20.0000	   25.1084	    1.5132	    0.0000	
 -580.0000	7.403E-11	1.309E-7	  -20.0000	   25.1084	    1.5132	    0.0000	
 -590.0000	7.302E-11	1.163E-7	  -20.0000	   25.1084	    1.5132	    0.0000	
 -600.0000	7.289E-11	1.116E-7	  -20.0000	   25.1084	    1.5132	    0.0000	
 -610.0000	7.263E-11	1.174E-7	  -20.0000	   25.1084	    1.5132	    0.0000	
 -620.0000	7.301E-11	1.111E-7	  -20.0000	   25.1084	    1.5132	    0.0000	
 -630.0000	7.138E-11	1.063E-7	  -20.0000	   25.1084	    1.5132	    0.0000	
 -640.0000	7.029E-11	9.537E-8	  -20.0000	   25.1084	    1.5132	    0.0000	
 -650.0000	6.873E-11	1.004E-7	  -20.0000	   25.1084	    1.5132	    0.0000	
 -660.0000	6.878E-11	9.709E-8	  -20.0000	   25.1084	    1.5132	    0.0000	
 -670.0000	6.775E-11	9.114E-8	  -20.0000	   25.1084	    1.5132	    0.0000	
 -680.0000	6.744E-11	7.722E-8	  -20.0000	   25.1084	    1.5132	    0.0000	
 -690.0000	6.691E-11	1.024E-7	  -20.0000	   25.1084	    1.5132	    0.0000	
 -700.0000	6.797E-11	7.503E-8	  -20.0000	   25.1084	    1.5132	    0.0000	
 -710.0000	6.681E-11	9.043E-8	  -20.0000	   25.1084	    1.5132	    0.0000	
 -720.0000	6.455E-11	8.221E-8	  -20.0000	   25.1084	    1.5132	    0.0000	
 -730.0000	6.391E-11	8.137E-8	  -20.0000	   25.1084	    1.5132	    0.0000	
 -740.0000	6.398E-11	7.984E-8	  -20.0000	   25.1084	    1.5132	    0.0000	
 -750.0000	6.475E-11	7.857E-8	  -20.0000	   25.1084	    1.5132	    0.0000	
 -760.0000	6.325E-11	6.550E-8	  -20.0000	   25.1084	    1.5132	    0.0000	
 -770.0000	6.501E-11	6.312E-8	  -20.0000	   25.1084	    1.5132	    0.0000	
 -780.0000	6.460E-11	7.160E-8	  -20.0000	   25.1084	    1.5132	    0.0000	
 -790.0000	6.096E-11	6.664E-8	  -20.0000	   25.1084	    1.5132	    0.0000	
 -800.0000	6.072E-11	5.991E-8	  -20.0000	   25.1084	    1.5132	    0.0000	
 -810.0000	6.185E-11	5.606E-8	  -20.0000	   25.1084	    1.5132	    0.0000	
 -820.0000	6.048E-11	6.930E-8	  -20.0000	   25.1084	    1.5132	    0.0000	
 -830.0000	5.940E-11	5.693E-8	  -20.0000	   25.1084	    1.5132	    0.0000	
 -840.0000	5.977E-11	5.577E-8	  -20.0000	   25.1084	    1.5132	    0.0000	
 -850.0000	6.078E-11	4.322E-8	  -20.0000	   25.1084	    1.5132	    0.0000	
 -860.0000	6.005E-11	4.810E-8	  -20.0000	   25.1084	    1.5132	    0.0000	
 -870.0000	5.945E-11	4.110E-8	  -20.0000	   25.1084	    1.5132	    0.0000	
 -880.0000	5.803E-11	4.356E-8	  -20.0000	   25.1084	    1.5132	    0.0000	
 -890.0000	5.864E-11	4.118E-8	  -20.0000	   25.1084	    1.5132	    0.0000	
 -900.0000	5.871E-11	4.576E-8	  -20.0000	   25.1084	    1.5132	    0.0000	
 -910.0000	5.614E-11	4.227E-8	  -20.0000	   25.1084	    1.5132	    0.0000	
 -920.0000	5.687E-11	4.643E-8	  -20.0000	   25.1084	    1.5132	    0.0000	
 -930.0000	5.753E-11	2.687E-8	  -20.0000	   25.1084	    1.5132	    0.0000	
 -940.0000	5.700E-11	4.460E-8	  -20.0000	   25.1084	    1.5132	    0.0000	
 -950.0000	5.532E-11	3.645E-8	  -20.0000	   25.1084	    1.5132	    0.0000	
 -960.0000	5.623E-11	2.716E-8	  -20.0000	   25.1084	    1.5132	    0.0000	
 -970.0000	5.814E-11	3.135E-8	  -20.0000	   25.1084	    1.5132	    0.0000	
 -980.0000	5.796E-11	5.020E-8	  -20.0000	   25.1084	    1.5132	    0.0000	
 -990.0000	5.589E-11	3.894E-8	  -20.0000	   25.1084	    1.5132	    0.0000	
-1000.0000	5.801E-11	3.286E-8	  -20.0000	   25.1084	    1.5132	    0.0000	
