GCD Test
Bias: 5000.000000
CV_37895_001_PSS_HM_XX_DIODE
Date/Time: 12/17/2021 9:39:42 AM
Sensor Name: DIODE
Type: P
Annealing Status: Unirradiated 
Environment: 20C
Tester: Andrew Kent

Time Delay per Ramp Step (s): 0.500

CV Time Delay per Measurement (s) :0.500

AC Voltage (V): 0.500

Current Number of measurements per voltage: 1.000

IV Time Delay per Measurement (s) :0.000


BiasVoltage	LCR_Cp_freq1000.0	LCR_Rp_freq1000.0	Temperature	Air_Temp	Humidity	Dewpoint	
   -5.0000	8.419E-11	1.036E+9	   20.2175	   21.8312	   23.1695	   -0.1098	
  -10.0000	6.030E-11	1.565E+9	   20.2149	   21.8245	   23.1667	   -0.1171	
  -15.0000	4.916E-11	1.702E+9	   20.2149	   21.8245	   23.1667	   -0.1171	
  -20.0000	4.214E-11	1.909E+9	   20.2149	   21.8226	   23.1724	   -0.1154	
  -25.0000	3.703E-11	1.627E+9	   20.2149	   21.8226	   23.1771	   -0.1126	
  -30.0000	3.269E-11	1.837E+9	   20.2124	   21.8227	   23.1790	   -0.1113	
  -35.0000	2.932E-11	1.821E+9	   20.2124	   21.8215	   23.1967	   -0.1019	
  -40.0000	2.663E-11	2.015E+9	   20.2124	   21.8192	   23.1942	   -0.1052	
  -45.0000	2.469E-11	2.425E+9	   20.2124	   21.8206	   23.1961	   -0.1029	
  -50.0000	2.331E-11	1.858E+9	   20.2098	   21.8181	   23.1935	   -0.1065	
  -55.0000	2.135E-11	1.214E+8	   20.2098	   21.8149	   23.2005	   -0.1051	
  -60.0000	1.812E-11	1.623E+9	   20.2098	   21.8175	   23.1996	   -0.1035	
  -65.0000	1.742E-11	1.724E+9	   20.2098	   21.8178	   23.2125	   -0.0956	
  -70.0000	1.681E-11	1.708E+9	   20.2098	   21.8086	   23.2078	   -0.1060	
  -75.0000	1.626E-11	1.786E+9	   20.2072	   21.8108	   23.2132	   -0.1011	
  -80.0000	1.577E-11	1.755E+9	   20.2072	   21.8137	   23.2242	   -0.0921	
  -85.0000	1.532E-11	1.768E+9	   20.2046	   21.8149	   23.2192	   -0.0940	
  -90.0000	1.490E-11	1.818E+9	   20.2046	   21.8133	   23.2312	   -0.0883	
  -95.0000	1.453E-11	1.858E+9	   20.2046	   21.8143	   23.2306	   -0.0878	
 -100.0000	1.418E-11	2.006E+9	   20.2046	   21.8109	   23.2309	   -0.0905	
 -105.0000	1.385E-11	2.307E+9	   20.2046	   21.8069	   23.2369	   -0.0903	
 -110.0000	1.355E-11	2.592E+9	   20.2021	   21.8096	   23.2296	   -0.0923	
 -115.0000	1.325E-11	3.053E+9	   20.2046	   21.8094	   23.2337	   -0.0901	
 -120.0000	1.299E-11	3.480E+9	   20.2046	   21.8048	   23.2419	   -0.0891	
 -125.0000	1.274E-11	3.204E+9	   20.2046	   21.8043	   23.2448	   -0.0878	
 -130.0000	1.251E-11	3.696E+9	   20.2021	   21.8096	   23.2457	   -0.0828	
 -135.0000	1.229E-11	3.613E+9	   20.2021	   21.8041	   23.2622	   -0.0777	
 -140.0000	1.208E-11	3.672E+9	   20.1995	   21.8041	   23.2555	   -0.0816	
 -145.0000	1.189E-11	3.696E+9	   20.1995	   21.8040	   23.2552	   -0.0819	
 -150.0000	1.170E-11	4.169E+9	   20.1995	   21.8020	   23.2460	   -0.0890	
 -155.0000	1.152E-11	3.829E+9	   20.1995	   21.8012	   23.2546	   -0.0846	
 -160.0000	1.135E-11	3.980E+9	   20.1995	   21.7983	   23.2574	   -0.0853	
 -165.0000	1.117E-11	3.902E+9	   20.1969	   21.7972	   23.2685	   -0.0797	
 -170.0000	1.102E-11	4.206E+9	   20.1969	   21.7984	   23.2704	   -0.0776	
 -175.0000	1.086E-11	3.976E+9	   20.1969	   21.7970	   23.2688	   -0.0797	
 -180.0000	1.071E-11	3.933E+9	   20.1969	   21.7916	   23.2729	   -0.0818	
 -185.0000	1.056E-11	4.326E+9	   20.1969	   21.7916	   23.2729	   -0.0818	
 -190.0000	1.042E-11	4.214E+9	   20.1943	   21.7919	   23.2726	   -0.0817	
 -195.0000	1.027E-11	4.263E+9	   20.1969	   21.7910	   23.2713	   -0.0833	
 -200.0000	1.014E-11	4.163E+9	   20.1943	   21.7886	   23.2739	   -0.0838	
 -205.0000	1.001E-11	4.112E+9	   20.1943	   21.7875	   23.2805	   -0.0807	
 -210.0000	9.900E-12	4.066E+9	   20.1943	   21.7875	   23.2862	   -0.0768	
 -215.0000	9.811E-12	4.112E+9	   20.1943	   21.7847	   23.2862	   -0.0798	
 -220.0000	9.744E-12	4.371E+9	   20.1918	   21.7822	   23.2894	   -0.0800	
 -225.0000	9.700E-12	4.122E+9	   20.1918	   21.7822	   23.2815	   -0.0847	
 -230.0000	9.676E-12	4.440E+9	   20.1918	   21.7825	   23.2862	   -0.0816	
 -235.0000	9.653E-12	4.601E+9	   20.1892	   21.7726	   23.2827	   -0.0920	
 -240.0000	9.638E-12	4.441E+9	   20.1892	   21.7726	   23.2827	   -0.0920	
 -245.0000	9.621E-12	4.438E+9	   20.1918	   21.7655	   23.2900	   -0.0936	
 -250.0000	9.613E-12	4.586E+9	   20.1918	   21.7708	   23.2900	   -0.0892	
 -255.0000	9.601E-12	4.485E+9	   20.1866	   21.7660	   23.2982	   -0.0884	
 -260.0000	9.597E-12	4.359E+9	   20.1892	   21.7707	   23.2948	   -0.0865	
 -265.0000	9.588E-12	4.668E+9	   20.1892	   21.7707	   23.2948	   -0.0865	
 -270.0000	9.585E-12	4.308E+9	   20.1866	   21.7689	   23.3049	   -0.0820	
 -275.0000	9.577E-12	4.666E+9	   20.1866	   21.7652	   23.2976	   -0.0894	
 -280.0000	9.572E-12	4.762E+9	   20.1840	   21.7604	   23.2957	   -0.0946	
 -285.0000	9.570E-12	4.780E+9	   20.1840	   21.7607	   23.2995	   -0.0920	
 -290.0000	9.564E-12	5.121E+9	   20.1840	   21.7571	   23.2998	   -0.0949	
 -295.0000	9.561E-12	4.555E+9	   20.1840	   21.7556	   23.3065	   -0.0922	
 -300.0000	9.559E-12	4.809E+9	   20.1840	   21.7543	   23.2995	   -0.0975	
 -305.0000	9.556E-12	4.891E+9	   20.1815	   21.7543	   23.3115	   -0.0904	
 -310.0000	9.551E-12	4.746E+9	   20.1815	   21.7530	   23.3264	   -0.0827	
 -315.0000	9.551E-12	4.705E+9	   20.1815	   21.7472	   23.3286	   -0.0863	
 -320.0000	9.544E-12	5.035E+9	   20.1789	   21.7499	   23.3340	   -0.0808	
 -325.0000	9.545E-12	5.400E+9	   20.1789	   21.7499	   23.3355	   -0.0799	
 -330.0000	9.541E-12	4.946E+9	   20.1789	   21.7516	   23.3444	   -0.0732	
 -335.0000	9.539E-12	4.521E+9	   20.1763	   21.7451	   23.3552	   -0.0724	
 -340.0000	9.536E-12	4.875E+9	   20.1763	   21.7452	   23.3501	   -0.0753	
 -345.0000	9.538E-12	5.112E+9	   20.1763	   21.7380	   23.3482	   -0.0825	
 -350.0000	9.536E-12	5.285E+9	   20.1737	   21.7380	   23.3517	   -0.0804	
 -355.0000	9.536E-12	5.756E+9	   20.1763	   21.7322	   23.3624	   -0.0790	
 -360.0000	9.529E-12	5.657E+9	   20.1737	   21.7322	   23.3545	   -0.0836	
 -365.0000	9.531E-12	5.110E+9	   20.1737	   21.7338	   23.3624	   -0.0776	
 -370.0000	9.528E-12	4.605E+9	   20.1712	   21.7384	   23.3681	   -0.0704	
 -375.0000	9.527E-12	4.840E+9	   20.1712	   21.7384	   23.3627	   -0.0736	
 -380.0000	9.525E-12	5.564E+9	   20.1712	   21.7366	   23.3703	   -0.0706	
 -385.0000	9.523E-12	5.291E+9	   20.1712	   21.7338	   23.3529	   -0.0832	
 -390.0000	9.523E-12	5.615E+9	   20.1686	   21.7347	   23.3691	   -0.0729	
 -395.0000	9.523E-12	5.242E+9	   20.1686	   21.7322	   23.3672	   -0.0761	
 -400.0000	9.521E-12	5.318E+9	   20.1686	   21.7315	   23.3577	   -0.0823	
 -410.0000	9.518E-12	5.146E+9	   20.1686	   21.7321	   23.3523	   -0.0849	
 -420.0000	9.516E-12	4.972E+9	   20.1660	   21.7293	   23.3533	   -0.0867	
 -430.0000	9.514E-12	6.422E+9	   20.1660	   21.7293	   23.3485	   -0.0896	
 -440.0000	9.513E-12	4.899E+9	   20.1660	   21.7293	   23.3444	   -0.0920	
 -450.0000	9.514E-12	5.244E+9	   20.1634	   21.7259	   23.3371	   -0.0991	
 -460.0000	9.510E-12	6.041E+9	   20.1634	   21.7304	   23.3286	   -0.1003	
 -470.0000	9.509E-12	5.108E+9	   20.1634	   21.7304	   23.3286	   -0.1003	
 -480.0000	9.506E-12	5.219E+9	   20.1634	   21.7257	   23.3327	   -0.1018	
 -490.0000	9.507E-12	4.868E+9	   20.1634	   21.7191	   23.3191	   -0.1155	
 -500.0000	9.505E-12	4.932E+9	   20.1609	   21.7163	   23.3197	   -0.1174	
 -510.0000	9.500E-12	5.208E+9	   20.1634	   21.7182	   23.3191	   -0.1162	
 -520.0000	9.500E-12	5.297E+9	   20.1609	   21.7143	   23.3093	   -0.1252	
 -530.0000	9.501E-12	5.012E+9	   20.1609	   21.7125	   23.3033	   -0.1303	
 -540.0000	9.498E-12	5.150E+9	   20.1609	   21.7187	   23.3027	   -0.1255	
 -550.0000	9.502E-12	5.228E+9	   20.1583	   21.7187	   23.2938	   -0.1307	
 -560.0000	9.497E-12	5.344E+9	   20.1583	   21.7187	   23.2938	   -0.1307	
 -570.0000	9.499E-12	6.136E+9	   20.1583	   21.7114	   23.2837	   -0.1428	
 -580.0000	9.494E-12	5.417E+9	   20.1583	   21.7142	   23.2805	   -0.1423	
 -590.0000	9.496E-12	5.721E+9	   20.1557	   21.7083	   23.2827	   -0.1459	
 -600.0000	9.494E-12	5.294E+9	   20.1583	   21.7093	   23.2543	   -0.1619	
