GCD Test
Bias: 5000.000000
IV_37895_001_PSS_HM_XX_DIODEHALFPSTOP_GR
Date/Time: 12/17/2021 10:42:03 AM
Sensor Name: DIODEHALFPSTOP
Type: P
Annealing Status: Unirradiated 
Environment: 20C
Tester: Andrew Kent

Time Delay per Ramp Step (s): 0.500

CV Time Delay per Measurement (s) :0.500

AC Voltage (V): 0.500

Current Number of measurements per voltage: 1.000

IV Time Delay per Measurement (s) :0.000


BiasVoltage	Total Current_Avg	Total Current_0	Bias Current_Avg	Bias Current_0	Temperature	Air_Temp	Humidity	Dewpoint	
   -5.0000	2.5400E-10	2.5400E-10	-2.144982E-11	-2.144982E-11	   20.0219	   21.6264	   23.3163	   -0.2239	
  -10.0000	3.2300E-10	3.2300E-10	-1.764159E-11	-1.764159E-11	   20.0219	   21.6278	   23.3163	   -0.1937	
  -15.0000	8.8000E-11	8.8000E-11	-1.822706E-11	-1.822706E-11	   20.0219	   21.6310	   23.3517	   -0.1702	
  -20.0000	2.3600E-10	2.3600E-10	-1.911383E-11	-1.911383E-11	   20.0219	   21.6332	   23.3820	   -0.1505	
  -25.0000	2.0000E-10	2.0000E-10	-1.927313E-11	-1.927313E-11	   20.0219	   21.6332	   23.4114	   -0.1505	
  -30.0000	9.4000E-11	9.4000E-11	-2.007454E-11	-2.007454E-11	   20.0219	   21.6332	   23.4282	   -0.1332	
  -35.0000	7.4000E-11	7.4000E-11	-2.009125E-11	-2.009125E-11	   20.0219	   21.6406	   23.4282	   -0.1172	
  -40.0000	3.8000E-11	3.8000E-11	-2.055430E-11	-2.055430E-11	   20.0193	   21.6363	   23.4390	   -0.1145	
  -45.0000	-4.5000E-11	-4.5000E-11	-2.137790E-11	-2.137790E-11	   20.0193	   21.6423	   23.4513	   -0.1022	
  -50.0000	-4.0000E-11	-4.0000E-11	-2.121167E-11	-2.121167E-11	   20.0193	   21.6377	   23.4573	   -0.1026	
  -55.0000	-7.7000E-11	-7.7000E-11	-2.203773E-11	-2.203773E-11	   20.0193	   21.6401	   23.4605	   -0.0988	
  -60.0000	-2.0500E-10	-2.0500E-10	-2.190898E-11	-2.190898E-11	   20.0193	   21.6401	   23.4605	   -0.0988	
  -65.0000	-1.7000E-11	-1.7000E-11	-2.237304E-11	-2.237304E-11	   20.0193	   21.6404	   23.4817	   -0.0899	
  -70.0000	-1.8500E-10	-1.8500E-10	-2.272710E-11	-2.272710E-11	   20.0167	   21.6404	   23.4832	   -0.0861	
  -75.0000	-1.1200E-10	-1.1200E-10	-2.319339E-11	-2.319339E-11	   20.0193	   21.6402	   23.4880	   -0.0853	
  -80.0000	-8.1000E-11	-8.1000E-11	-2.381309E-11	-2.381309E-11	   20.0193	   21.6390	   23.4946	   -0.0836	
  -85.0000	-2.3400E-10	-2.3400E-10	-2.371468E-11	-2.371468E-11	   20.0193	   21.6388	   23.4987	   -0.0798	
  -90.0000	-1.2900E-10	-1.2900E-10	-2.396892E-11	-2.396892E-11	   20.0193	   21.6395	   23.4987	   -0.0768	
  -95.0000	-1.6200E-10	-1.6200E-10	-2.374097E-11	-2.374097E-11	   20.0167	   21.6393	   23.5051	   -0.0733	
 -100.0000	-1.6500E-10	-1.6500E-10	-2.447108E-11	-2.447108E-11	   20.0193	   21.6395	   23.5003	   -0.0759	
 -105.0000	-2.1300E-10	-2.1300E-10	-2.453361E-11	-2.453361E-11	   20.0167	   21.6359	   23.5089	   -0.0740	
 -110.0000	-1.5700E-10	-1.5700E-10	-2.448227E-11	-2.448227E-11	   20.0193	   21.6362	   23.5028	   -0.0772	
 -115.0000	-2.2500E-10	-2.2500E-10	-2.482676E-11	-2.482676E-11	   20.0167	   21.6382	   23.5054	   -0.0740	
 -120.0000	-1.8800E-10	-1.8800E-10	-2.517348E-11	-2.517348E-11	   20.0193	   21.6358	   23.5063	   -0.0755	
 -125.0000	-2.0900E-10	-2.0900E-10	-2.543321E-11	-2.543321E-11	   20.0167	   21.6370	   23.5063	   -0.0745	
 -130.0000	-1.8300E-10	-1.8300E-10	-2.625132E-11	-2.625132E-11	   20.0167	   21.6372	   23.5070	   -0.0740	
 -135.0000	-1.9400E-10	-1.9400E-10	-2.576404E-11	-2.576404E-11	   20.0167	   21.6289	   23.5158	   -0.0757	
 -140.0000	-2.0100E-10	-2.0100E-10	-2.628493E-11	-2.628493E-11	   20.0193	   21.6326	   23.5098	   -0.0762	
 -145.0000	-3.0200E-10	-3.0200E-10	-2.646868E-11	-2.646868E-11	   20.0167	   21.6261	   23.5155	   -0.0783	
 -150.0000	-2.3300E-10	-2.3300E-10	-2.674900E-11	-2.674900E-11	   20.0167	   21.6320	   23.5123	   -0.0751	
 -155.0000	-2.5200E-10	-2.5200E-10	-2.738804E-11	-2.738804E-11	   20.0142	   21.6270	   23.5209	   -0.0744	
 -160.0000	-3.8800E-10	-3.8800E-10	-2.736502E-11	-2.736502E-11	   20.0142	   21.6269	   23.5139	   -0.0786	
 -165.0000	-3.0400E-10	-3.0400E-10	-2.825545E-11	-2.825545E-11	   20.0167	   21.6220	   23.5139	   -0.0827	
 -170.0000	-3.2400E-10	-3.2400E-10	-2.856062E-11	-2.856062E-11	   20.0167	   21.6249	   23.5183	   -0.0777	
 -175.0000	-2.6700E-10	-2.6700E-10	-2.974235E-11	-2.974235E-11	   20.0142	   21.6266	   23.5066	   -0.0830	
 -180.0000	-3.7400E-10	-3.7400E-10	-3.075726E-11	-3.075726E-11	   20.0142	   21.6229	   23.5149	   -0.0813	
 -185.0000	-2.9300E-10	-2.9300E-10	-3.178499E-11	-3.178499E-11	   20.0142	   21.6212	   23.5142	   -0.0831	
 -190.0000	-3.0700E-10	-3.0700E-10	-3.282820E-11	-3.282820E-11	   20.0142	   21.6244	   23.5104	   -0.0826	
 -195.0000	-3.2100E-10	-3.2100E-10	-3.399222E-11	-3.399222E-11	   20.0116	   21.6185	   23.5054	   -0.0906	
 -200.0000	-4.0500E-10	-4.0500E-10	-3.587942E-11	-3.587942E-11	   20.0142	   21.6216	   23.5098	   -0.0854	
 -205.0000	-4.0200E-10	-4.0200E-10	-3.732108E-11	-3.732108E-11	   20.0142	   21.6156	   23.5092	   -0.0908	
 -210.0000	-3.5200E-10	-3.5200E-10	-3.965890E-11	-3.965890E-11	   20.0116	   21.6142	   23.5127	   -0.0899	
 -215.0000	-4.4800E-10	-4.4800E-10	-4.139128E-11	-4.139128E-11	   20.0142	   21.6127	   23.5044	   -0.0960	
 -220.0000	-4.7800E-10	-4.7800E-10	-4.356571E-11	-4.356571E-11	   20.0116	   21.6127	   23.5044	   -0.0960	
 -225.0000	-4.1400E-10	-4.1400E-10	-4.501290E-11	-4.501290E-11	   20.0142	   21.6135	   23.5044	   -0.0954	
 -230.0000	-4.4200E-10	-4.4200E-10	-4.626226E-11	-4.626226E-11	   20.0116	   21.6030	   23.4937	   -0.1069	
 -235.0000	-5.2700E-10	-5.2700E-10	-4.770799E-11	-4.770799E-11	   20.0116	   21.6030	   23.4918	   -0.1105	
 -240.0000	-4.9500E-10	-4.9500E-10	-4.956098E-11	-4.956098E-11	   20.0116	   21.6065	   23.4864	   -0.1086	
 -245.0000	-5.3400E-10	-5.3400E-10	-4.993357E-11	-4.993357E-11	   20.0116	   21.6073	   23.4829	   -0.1111	
 -250.0000	-4.2500E-10	-4.2500E-10	-5.054167E-11	-5.054167E-11	   20.0116	   21.6065	   23.4712	   -0.1138	
 -255.0000	-4.3500E-10	-4.3500E-10	-5.179104E-11	-5.179104E-11	   20.0090	   21.6018	   23.4649	   -0.1246	
 -260.0000	-4.4000E-10	-4.4000E-10	-5.235328E-11	-5.235328E-11	   20.0090	   21.6037	   23.4649	   -0.1267	
 -265.0000	-4.6200E-10	-4.6200E-10	-5.324984E-11	-5.324984E-11	   20.0090	   21.6052	   23.4677	   -0.1238	
 -270.0000	-4.5600E-10	-4.5600E-10	-5.391657E-11	-5.391657E-11	   20.0090	   21.6027	   23.4706	   -0.1242	
 -275.0000	-4.5900E-10	-4.5900E-10	-5.419261E-11	-5.419261E-11	   20.0090	   21.6062	   23.4564	   -0.1296	
 -280.0000	-5.2400E-10	-5.2400E-10	-5.486344E-11	-5.486344E-11	   20.0064	   21.6029	   23.4475	   -0.1376	
 -285.0000	-5.5600E-10	-5.5600E-10	-5.542101E-11	-5.542101E-11	   20.0090	   21.6003	   23.4434	   -0.1422	
 -290.0000	-5.7300E-10	-5.7300E-10	-5.570660E-11	-5.570660E-11	   20.0064	   21.6034	   23.4386	   -0.1423	
 -295.0000	-5.6400E-10	-5.6400E-10	-5.606533E-11	-5.606533E-11	   20.0064	   21.6007	   23.4424	   -0.1424	
 -300.0000	-5.8900E-10	-5.8900E-10	-5.636783E-11	-5.636783E-11	   20.0064	   21.6049	   23.4402	   -0.1402	
 -305.0000	-6.2600E-10	-6.2600E-10	-5.682804E-11	-5.682804E-11	   20.0064	   21.6014	   23.4206	   -0.1545	
 -310.0000	-6.3400E-10	-6.3400E-10	-5.720532E-11	-5.720532E-11	   20.0064	   21.5982	   23.4194	   -0.1580	
 -315.0000	-4.9900E-10	-4.9900E-10	-5.748339E-11	-5.748339E-11	   20.0064	   21.6029	   23.4181	   -0.1549	
 -320.0000	-6.1400E-10	-6.1400E-10	-5.775880E-11	-5.775880E-11	   20.0064	   21.6012	   23.4058	   -0.1634	
 -325.0000	-5.9000E-10	-5.9000E-10	-5.817114E-11	-5.817114E-11	   20.0064	   21.5997	   23.3978	   -0.1694	
 -330.0000	-6.4500E-10	-6.4500E-10	-5.883036E-11	-5.883036E-11	   20.0039	   21.5998	   23.3865	   -0.1760	
 -335.0000	-6.5000E-10	-6.5000E-10	-5.884784E-11	-5.884784E-11	   20.0039	   21.5991	   23.3861	   -0.1768	
 -340.0000	-6.6400E-10	-6.6400E-10	-5.944902E-11	-5.944902E-11	   20.0039	   21.5991	   23.3744	   -0.1768	
 -345.0000	-6.7200E-10	-6.7200E-10	-5.924592E-11	-5.924592E-11	   20.0039	   21.6029	   23.3735	   -0.1804	
 -350.0000	-5.4400E-10	-5.4400E-10	-5.948304E-11	-5.948304E-11	   20.0039	   21.6033	   23.3725	   -0.1806	
 -355.0000	-6.8700E-10	-6.8700E-10	-5.999741E-11	-5.999741E-11	   20.0039	   21.5997	   23.3707	   -0.1842	
 -360.0000	-6.8500E-10	-6.8500E-10	-6.004143E-11	-6.004143E-11	   20.0039	   21.6035	   23.3659	   -0.1822	
 -365.0000	-6.7900E-10	-6.7900E-10	-6.055213E-11	-6.055213E-11	   20.0039	   21.6029	   23.3659	   -0.1855	
 -370.0000	-6.8200E-10	-6.8200E-10	-6.054194E-11	-6.054194E-11	   20.0064	   21.5944	   23.3608	   -0.1955	
 -375.0000	-6.9700E-10	-6.9700E-10	-6.103248E-11	-6.103248E-11	   20.0064	   21.5952	   23.3571	   -0.1971	
 -380.0000	-6.6700E-10	-6.6700E-10	-6.121218E-11	-6.121218E-11	   20.0039	   21.5945	   23.3586	   -0.1968	
 -385.0000	-6.9400E-10	-6.9400E-10	-6.158089E-11	-6.158089E-11	   20.0039	   21.5911	   23.3615	   -0.1979	
 -390.0000	-7.1900E-10	-7.1900E-10	-6.232077E-11	-6.232077E-11	   20.0039	   21.5937	   23.3590	   -0.1972	
 -395.0000	-7.1700E-10	-7.1700E-10	-6.190905E-11	-6.190905E-11	   20.0013	   21.5932	   23.3472	   -0.2046	
 -400.0000	-7.0000E-10	-7.0000E-10	-6.232768E-11	-6.232768E-11	   20.0013	   21.5947	   23.3548	   -0.1989	
 -410.0000	-7.8200E-10	-7.8200E-10	-6.230672E-11	-6.230672E-11	   20.0039	   21.5949	   23.3526	   -0.2000	
 -420.0000	-7.6000E-10	-7.6000E-10	-6.237065E-11	-6.237065E-11	   20.0013	   21.5903	   23.3558	   -0.2019	
 -430.0000	-7.8700E-10	-7.8700E-10	-6.321588E-11	-6.321588E-11	   20.0064	   21.5941	   23.3416	   -0.2072	
 -440.0000	-8.3000E-10	-8.3000E-10	-6.308266E-11	-6.308266E-11	   20.0064	   21.5886	   23.3416	   -0.2118	
 -450.0000	-7.9500E-10	-7.9500E-10	-6.398470E-11	-6.398470E-11	   20.0039	   21.5853	   23.3327	   -0.2198	
 -460.0000	-8.8000E-10	-8.8000E-10	-6.434425E-11	-6.434425E-11	   20.0039	   21.5931	   23.3197	   -0.2208	
 -470.0000	-9.3100E-10	-9.3100E-10	-6.488326E-11	-6.488326E-11	   20.0039	   21.5910	   23.3232	   -0.2205	
 -480.0000	-1.1000E-9	-1.1000E-9	-6.482501E-11	-6.482501E-11	   20.0039	   21.5913	   23.3299	   -0.2164	
 -490.0000	-9.6800E-10	-9.6800E-10	-6.505319E-11	-6.505319E-11	   20.0013	   21.5900	   23.3121	   -0.2279	
 -500.0000	-1.0140E-9	-1.0140E-9	-6.537178E-11	-6.537178E-11	   20.0013	   21.5900	   23.3049	   -0.2279	
 -510.0000	-9.9900E-10	-9.9900E-10	-6.567631E-11	-6.567631E-11	   20.0013	   21.5922	   23.3049	   -0.2304	
 -520.0000	-1.0510E-9	-1.0510E-9	-6.600001E-11	-6.600001E-11	   20.0039	   21.5879	   23.2989	   -0.2375	
 -530.0000	-1.1790E-9	-1.1790E-9	-6.645366E-11	-6.645366E-11	   20.0039	   21.5849	   23.2894	   -0.2456	
 -540.0000	-1.1820E-9	-1.1820E-9	-6.689106E-11	-6.689106E-11	   20.0064	   21.5861	   23.2770	   -0.2519	
 -550.0000	-1.0890E-9	-1.0890E-9	-6.685765E-11	-6.685765E-11	   20.0039	   21.5861	   23.2628	   -0.2519	
 -560.0000	-1.2770E-9	-1.2770E-9	-6.729849E-11	-6.729849E-11	   20.0039	   21.5861	   23.2628	   -0.2603	
 -570.0000	-1.1580E-9	-1.1580E-9	-6.777495E-11	-6.777495E-11	   20.0064	   21.5836	   23.2533	   -0.2679	
 -580.0000	-1.1300E-9	-1.1300E-9	-6.791614E-11	-6.791614E-11	   20.0039	   21.5867	   23.2416	   -0.2723	
 -590.0000	-1.2370E-9	-1.2370E-9	-6.796300E-11	-6.796300E-11	   20.0039	   21.5886	   23.2321	   -0.2763	
 -600.0000	-1.1360E-9	-1.1360E-9	-6.874200E-11	-6.874200E-11	   20.0039	   21.5829	   23.2331	   -0.2805	
 -610.0000	-1.1660E-9	-1.1660E-9	-6.862529E-11	-6.862529E-11	   20.0064	   21.5829	   23.2211	   -0.2805	
 -620.0000	-1.1750E-9	-1.1750E-9	-6.879803E-11	-6.879803E-11	   20.0064	   21.5895	   23.2211	   -0.2821	
 -630.0000	-1.1850E-9	-1.1850E-9	-6.889050E-11	-6.889050E-11	   20.0039	   21.5808	   23.2138	   -0.2936	
 -640.0000	-1.3030E-9	-1.3030E-9	-6.965318E-11	-6.965318E-11	   20.0039	   21.5843	   23.2113	   -0.2922	
 -650.0000	-1.2340E-9	-1.2340E-9	-7.005410E-11	-7.005410E-11	   20.0013	   21.5843	   23.1907	   -0.2922	
 -660.0000	-1.2300E-9	-1.2300E-9	-7.042771E-11	-7.042771E-11	   20.0013	   21.5882	   23.1907	   -0.3011	
 -670.0000	-1.2430E-9	-1.2430E-9	-7.025661E-11	-7.025661E-11	   20.0039	   21.5834	   23.1822	   -0.3101	
 -680.0000	-1.2540E-9	-1.2540E-9	-7.046826E-11	-7.046826E-11	   20.0039	   21.5830	   23.1803	   -0.3117	
 -690.0000	-1.2710E-9	-1.2710E-9	-7.074018E-11	-7.074018E-11	   20.0013	   21.5830	   23.1622	   -0.3117	
 -700.0000	-1.2870E-9	-1.2870E-9	-7.075550E-11	-7.075550E-11	   20.0013	   21.5802	   23.1622	   -0.3247	
 -710.0000	-1.3000E-9	-1.3000E-9	-7.146318E-11	-7.146318E-11	   20.0013	   21.5845	   23.1597	   -0.3226	
 -720.0000	-1.3620E-9	-1.3620E-9	-7.167646E-11	-7.167646E-11	   20.0039	   21.5873	   23.1477	   -0.3273	
 -730.0000	-1.3340E-9	-1.3340E-9	-7.205232E-11	-7.205232E-11	   20.0013	   21.5832	   23.1423	   -0.3340	
 -740.0000	-1.3410E-9	-1.3410E-9	-7.224342E-11	-7.224342E-11	   20.0013	   21.5832	   23.1401	   -0.3340	
 -750.0000	-1.3540E-9	-1.3540E-9	-7.269502E-11	-7.269502E-11	   20.0013	   21.5814	   23.1401	   -0.3368	
 -760.0000	-1.3980E-9	-1.3980E-9	-7.257951E-11	-7.257951E-11	   20.0039	   21.5822	   23.1331	   -0.3402	
 -770.0000	-1.3840E-9	-1.3840E-9	-7.314423E-11	-7.314423E-11	   20.0039	   21.5793	   23.1268	   -0.3464	
 -780.0000	-1.4650E-9	-1.4650E-9	-7.295699E-11	-7.295699E-11	   20.0013	   21.5783	   23.1091	   -0.3577	
 -790.0000	-1.5090E-9	-1.5090E-9	-7.323323E-11	-7.323323E-11	   20.0013	   21.5783	   23.1028	   -0.3577	
 -800.0000	-1.4400E-9	-1.4400E-9	-7.331043E-11	-7.331043E-11	   20.0013	   21.5809	   23.1028	   -0.3593	
 -810.0000	-1.4990E-9	-1.4990E-9	-7.374072E-11	-7.374072E-11	   20.0013	   21.5826	   23.0911	   -0.3648	
 -820.0000	-1.6080E-9	-1.6080E-9	-7.382850E-11	-7.382850E-11	   20.0013	   21.5821	   23.0895	   -0.3662	
 -830.0000	-1.4890E-9	-1.4890E-9	-7.407620E-11	-7.407620E-11	   20.0013	   21.5821	   23.0778	   -0.3662	
 -840.0000	-1.5310E-9	-1.5310E-9	-7.419801E-11	-7.419801E-11	   20.0013	   21.5821	   23.0778	   -0.3731	
 -850.0000	-1.5050E-9	-1.5050E-9	-7.431290E-11	-7.431290E-11	   20.0039	   21.5815	   23.0734	   -0.3763	
 -860.0000	-1.5690E-9	-1.5690E-9	-7.442861E-11	-7.442861E-11	   20.0039	   21.5842	   23.0737	   -0.3739	
 -870.0000	-1.7230E-9	-1.7230E-9	-7.479387E-11	-7.479387E-11	   20.0039	   21.5814	   23.0588	   -0.3851	
 -880.0000	-1.5620E-9	-1.5620E-9	-7.519602E-11	-7.519602E-11	   20.0039	   21.5814	   23.0639	   -0.3851	
 -890.0000	-1.6220E-9	-1.6220E-9	-7.514551E-11	-7.514551E-11	   20.0039	   21.5814	   23.0639	   -0.3820	
 -900.0000	-1.7150E-9	-1.7150E-9	-7.542723E-11	-7.542723E-11	   20.0013	   21.5786	   23.0449	   -0.3956	
 -910.0000	-1.6500E-9	-1.6500E-9	-7.536530E-11	-7.536530E-11	   20.0013	   21.5786	   23.0323	   -0.3956	
 -920.0000	-1.6450E-9	-1.6450E-9	-7.564602E-11	-7.564602E-11	   20.0013	   21.5839	   23.0323	   -0.3987	
 -930.0000	-1.6760E-9	-1.6760E-9	-7.607585E-11	-7.607585E-11	   20.0013	   21.5770	   23.0367	   -0.4018	
 -940.0000	-1.7510E-9	-1.7510E-9	-7.641666E-11	-7.641666E-11	   20.0013	   21.5792	   23.0259	   -0.4064	
 -950.0000	-1.7640E-9	-1.7640E-9	-7.639933E-11	-7.639933E-11	   20.0013	   21.5788	   23.0212	   -0.4096	
 -960.0000	-1.7400E-9	-1.7400E-9	-7.639955E-11	-7.639955E-11	   20.0013	   21.5788	   23.0095	   -0.4096	
 -970.0000	-1.7500E-9	-1.7500E-9	-7.678885E-11	-7.678885E-11	   20.0013	   21.5788	   23.0095	   -0.4166	
 -980.0000	-1.8740E-9	-1.8740E-9	-7.706509E-11	-7.706509E-11	   20.0013	   21.5760	   23.0101	   -0.4185	
 -990.0000	-1.9120E-9	-1.9120E-9	-7.712110E-11	-7.712110E-11	   20.0013	   21.5719	   22.9943	   -0.4314	
-1000.0000	-1.9420E-9	-1.9420E-9	-7.734884E-11	-7.734884E-11	   20.0039	   21.5719	   22.9889	   -0.4314	
