GCD Test
Bias: 5000.000000
CV_34252_018_PSS_HM_XX_DIODEHALF
Date/Time: 4/27/2021 11:31:38 AM
Sensor Name: DIODEHALF
Type: P
Annealing Status: Unirradiated
Environment: RT
Tester: Andrew Kent

Time Delay per Ramp Step (s): 0.500

CV Time Delay per Measurement (s) :0.500

AC Voltage (V): 0.500

Current Number of measurements per voltage: 1.000

IV Time Delay per Measurement (s) :0.000


BiasVoltage	LCR_Cp_freq1000.0	LCR_Rp_freq1000.0	Temperature	Air_Temp	Humidity	Dewpoint	
   -5.0000	3.665E-11	1.677E+9	   22.7693	   22.9357	   19.3324	   -1.6650	
  -10.0000	2.749E-11	2.253E+9	   22.7693	   22.9333	   19.3280	   -1.6701	
  -15.0000	2.320E-11	2.335E+9	   22.7693	   22.9347	   19.3273	   -1.6694	
  -20.0000	2.051E-11	2.635E+9	   22.7693	   22.9338	   19.3305	   -1.6679	
  -25.0000	1.863E-11	2.464E+9	   22.7693	   22.9338	   19.3349	   -1.6648	
  -30.0000	1.704E-11	2.530E+9	   22.7693	   22.9377	   19.3264	   -1.6676	
  -35.0000	1.556E-11	2.485E+9	   22.7693	   22.9382	   19.3175	   -1.6734	
  -40.0000	1.373E-11	2.450E+9	   22.7693	   22.9354	   19.3333	   -1.6647	
  -45.0000	1.273E-11	2.802E+9	   22.7693	   22.9365	   19.3080	   -1.6815	
  -50.0000	1.035E-11	4.671E+8	   22.7693	   22.9395	   19.3185	   -1.6717	
  -55.0000	1.004E-11	5.810E+8	   22.7693	   22.9376	   19.3096	   -1.6795	
  -60.0000	9.811E-12	5.939E+8	   22.7693	   22.9413	   19.3096	   -1.6765	
  -65.0000	9.606E-12	6.257E+8	   22.7693	   22.9366	   19.3242	   -1.6701	
  -70.0000	9.426E-12	6.619E+8	   22.7693	   22.9394	   19.3295	   -1.6640	
  -75.0000	9.260E-12	6.894E+8	   22.7693	   22.9401	   19.3182	   -1.6714	
  -80.0000	9.103E-12	7.328E+8	   22.7693	   22.9366	   19.3156	   -1.6760	
  -85.0000	8.963E-12	7.935E+8	   22.7668	   22.9352	   19.3283	   -1.6683	
  -90.0000	8.832E-12	8.617E+8	   22.7693	   22.9357	   19.3194	   -1.6741	
  -95.0000	8.718E-12	9.324E+8	   22.7693	   22.9389	   19.3289	   -1.6649	
 -100.0000	8.614E-12	1.009E+9	   22.7693	   22.9377	   19.3254	   -1.6683	
 -105.0000	8.516E-12	1.040E+9	   22.7693	   22.9430	   19.3125	   -1.6730	
 -110.0000	8.430E-12	1.086E+9	   22.7693	   22.9430	   19.3223	   -1.6661	
 -115.0000	8.347E-12	1.165E+9	   22.7693	   22.9381	   19.3229	   -1.6698	
 -120.0000	8.269E-12	1.192E+9	   22.7693	   22.9411	   19.3182	   -1.6706	
 -125.0000	8.194E-12	1.197E+9	   22.7693	   22.9392	   19.3077	   -1.6795	
 -130.0000	8.128E-12	1.211E+9	   22.7693	   22.9413	   19.3318	   -1.6609	
 -135.0000	8.065E-12	1.260E+9	   22.7693	   22.9431	   19.3210	   -1.6670	
 -140.0000	8.005E-12	1.228E+9	   22.7668	   22.9409	   19.3131	   -1.6743	
 -145.0000	7.946E-12	1.296E+9	   22.7668	   22.9437	   19.3213	   -1.6662	
 -150.0000	7.889E-12	1.256E+9	   22.7668	   22.9430	   19.3147	   -1.6715	
 -155.0000	7.840E-12	1.281E+9	   22.7668	   22.9430	   19.3188	   -1.6686	
 -160.0000	7.788E-12	1.269E+9	   22.7693	   22.9438	   19.3115	   -1.6731	
 -165.0000	7.745E-12	1.362E+9	   22.7668	   22.9398	   19.3125	   -1.6757	
 -170.0000	7.697E-12	1.363E+9	   22.7668	   22.9460	   19.3061	   -1.6750	
 -175.0000	7.656E-12	1.360E+9	   22.7693	   22.9400	   19.3033	   -1.6820	
 -180.0000	7.612E-12	1.432E+9	   22.7668	   22.9431	   19.3042	   -1.6787	
 -185.0000	7.569E-12	1.449E+9	   22.7668	   22.9450	   19.3137	   -1.6705	
 -190.0000	7.534E-12	1.491E+9	   22.7668	   22.9450	   19.3137	   -1.6705	
 -195.0000	7.497E-12	1.538E+9	   22.7668	   22.9499	   19.3178	   -1.6636	
 -200.0000	7.459E-12	1.547E+9	   22.7668	   22.9454	   19.3194	   -1.6662	
 -205.0000	7.424E-12	1.632E+9	   22.7668	   22.9462	   19.3099	   -1.6722	
 -210.0000	7.392E-12	1.654E+9	   22.7668	   22.9439	   19.3144	   -1.6709	
 -215.0000	7.361E-12	1.696E+9	   22.7668	   22.9470	   19.3207	   -1.6640	
 -220.0000	7.329E-12	1.689E+9	   22.7693	   22.9456	   19.3197	   -1.6658	
 -225.0000	7.302E-12	1.768E+9	   22.7668	   22.9475	   19.3065	   -1.6735	
 -230.0000	7.270E-12	1.818E+9	   22.7668	   22.9437	   19.3090	   -1.6749	
 -235.0000	7.243E-12	1.849E+9	   22.7668	   22.9471	   19.3020	   -1.6770	
 -240.0000	7.212E-12	1.856E+9	   22.7668	   22.9455	   19.3068	   -1.6750	
 -245.0000	7.187E-12	1.957E+9	   22.7668	   22.9480	   19.3080	   -1.6721	
 -250.0000	7.158E-12	1.933E+9	   22.7668	   22.9480	   19.3080	   -1.6721	
 -255.0000	7.133E-12	1.993E+9	   22.7668	   22.9489	   19.3115	   -1.6689	
 -260.0000	7.111E-12	2.006E+9	   22.7668	   22.9465	   19.3121	   -1.6704	
 -265.0000	7.084E-12	1.933E+9	   22.7668	   22.9465	   19.3121	   -1.6704	
 -270.0000	7.059E-12	2.044E+9	   22.7693	   22.9481	   19.3083	   -1.6718	
 -275.0000	7.036E-12	2.089E+9	   22.7668	   22.9459	   19.3058	   -1.6754	
 -280.0000	7.008E-12	2.120E+9	   22.7668	   22.9477	   19.3169	   -1.6660	
 -285.0000	6.991E-12	2.201E+9	   22.7668	   22.9493	   19.3071	   -1.6717	
 -290.0000	6.970E-12	2.061E+9	   22.7668	   22.9493	   19.3093	   -1.6701	
 -295.0000	6.948E-12	2.198E+9	   22.7668	   22.9447	   19.3023	   -1.6787	
 -300.0000	6.929E-12	2.169E+9	   22.7668	   22.9503	   19.3087	   -1.6697	
 -305.0000	6.914E-12	2.154E+9	   22.7668	   22.9494	   19.3011	   -1.6758	
 -310.0000	6.902E-12	2.255E+9	   22.7668	   22.9522	   19.3042	   -1.6713	
 -315.0000	6.895E-12	2.104E+9	   22.7668	   22.9532	   19.2960	   -1.6762	
 -320.0000	6.884E-12	2.228E+9	   22.7668	   22.9532	   19.3027	   -1.6716	
 -325.0000	6.877E-12	2.219E+9	   22.7668	   22.9455	   19.3042	   -1.6768	
 -330.0000	6.870E-12	2.302E+9	   22.7668	   22.9468	   19.3112	   -1.6708	
 -335.0000	6.864E-12	2.351E+9	   22.7668	   22.9500	   19.3150	   -1.6655	
 -340.0000	6.864E-12	2.278E+9	   22.7668	   22.9504	   19.3131	   -1.6665	
 -345.0000	6.855E-12	2.235E+9	   22.7668	   22.9488	   19.3156	   -1.6661	
 -350.0000	6.855E-12	2.213E+9	   22.7668	   22.9527	   19.3226	   -1.6580	
 -355.0000	6.851E-12	2.252E+9	   22.7668	   22.9468	   19.3242	   -1.6617	
 -360.0000	6.854E-12	2.359E+9	   22.7668	   22.9504	   19.3049	   -1.6723	
 -365.0000	6.848E-12	2.201E+9	   22.7668	   22.9518	   19.3232	   -1.6582	
 -370.0000	6.844E-12	2.223E+9	   22.7668	   22.9509	   19.3175	   -1.6630	
 -375.0000	6.843E-12	2.324E+9	   22.7668	   22.9532	   19.3109	   -1.6657	
 -380.0000	6.841E-12	2.247E+9	   22.7668	   22.9519	   19.3188	   -1.6613	
 -385.0000	6.838E-12	2.328E+9	   22.7668	   22.9496	   19.3068	   -1.6717	
 -390.0000	6.838E-12	2.239E+9	   22.7668	   22.9501	   19.3201	   -1.6618	
 -395.0000	6.835E-12	2.278E+9	   22.7668	   22.9501	   19.3283	   -1.6561	
 -400.0000	6.834E-12	2.290E+9	   22.7668	   22.9505	   19.3213	   -1.6607	
 -410.0000	6.835E-12	2.327E+9	   22.7668	   22.9526	   19.3245	   -1.6567	
 -420.0000	6.834E-12	2.389E+9	   22.7668	   22.9487	   19.3216	   -1.6620	
 -430.0000	6.828E-12	2.269E+9	   22.7642	   22.9522	   19.3245	   -1.6571	
 -440.0000	6.826E-12	2.301E+9	   22.7668	   22.9503	   19.3245	   -1.6586	
 -450.0000	6.822E-12	2.437E+9	   22.7668	   22.9550	   19.3182	   -1.6592	
 -460.0000	6.819E-12	2.328E+9	   22.7642	   22.9550	   19.3219	   -1.6566	
 -470.0000	6.820E-12	2.471E+9	   22.7668	   22.9552	   19.3201	   -1.6577	
 -480.0000	6.823E-12	2.395E+9	   22.7668	   22.9544	   19.3201	   -1.6583	
 -490.0000	6.822E-12	2.358E+9	   22.7668	   22.9561	   19.3191	   -1.6577	
 -500.0000	6.817E-12	2.373E+9	   22.7642	   22.9488	   19.3261	   -1.6588	
 -510.0000	6.816E-12	2.467E+9	   22.7642	   22.9560	   19.3210	   -1.6564	
 -520.0000	6.819E-12	2.417E+9	   22.7642	   22.9516	   19.3286	   -1.6547	
 -530.0000	6.814E-12	2.493E+9	   22.7642	   22.9559	   19.3153	   -1.6605	
 -540.0000	6.817E-12	2.426E+9	   22.7668	   22.9559	   19.3355	   -1.6463	
 -550.0000	6.814E-12	2.370E+9	   22.7668	   22.9556	   19.3340	   -1.6476	
 -560.0000	6.813E-12	2.512E+9	   22.7642	   22.9566	   19.3226	   -1.6548	
 -570.0000	6.809E-12	2.500E+9	   22.7668	   22.9566	   19.3232	   -1.6544	
 -580.0000	6.813E-12	2.433E+9	   22.7668	   22.9594	   19.3197	   -1.6545	
 -590.0000	6.809E-12	2.446E+9	   22.7642	   22.9594	   19.3273	   -1.6492	
 -600.0000	6.813E-12	2.563E+9	   22.7642	   22.9573	   19.3159	   -1.6589	
