GCD Test
Bias: 5000.000000
CV_37398_031_PSS_HM_XX_DIODE
Date/Time: 11/8/2021 4:36:43 PM
Sensor Name: DIODE
Type: P
Annealing Status: Not Irradiated and not Annealed
Environment: 20C
Tester: Andrew Kent

Time Delay per Ramp Step (s): 0.500

CV Time Delay per Measurement (s) :0.500

AC Voltage (V): 0.500

Current Number of measurements per voltage: 1.000

IV Time Delay per Measurement (s) :0.000


BiasVoltage	LCR_Cp_freqNaN	LCR_Rp_freqNaN	Temperature	Air_Temp	Humidity	Dewpoint	
   -5.0000	8.853E-11	6.147E+8	   20.0939	   21.7743	    6.5389	  -16.3553	
  -10.0000	6.350E-11	1.358E+9	   20.0939	   21.7755	    6.5319	  -16.3671	
  -15.0000	5.183E-11	1.508E+9	   20.0965	   21.7743	    6.5300	  -16.3703	
  -20.0000	4.459E-11	1.754E+9	   20.0965	   21.7816	    6.5304	  -16.3656	
  -25.0000	3.937E-11	1.842E+9	   20.0939	   21.7763	    6.5278	  -16.3741	
  -30.0000	3.542E-11	1.745E+9	   20.0939	   21.7761	    6.5266	  -16.3765	
  -35.0000	3.188E-11	1.730E+9	   20.0939	   21.7761	    6.5300	  -16.3702	
  -40.0000	2.850E-11	1.631E+9	   20.0939	   21.7755	    6.5221	  -16.3851	
  -45.0000	2.609E-11	1.939E+9	   20.0939	   21.7686	    6.5240	  -16.3867	
  -50.0000	2.461E-11	2.107E+9	   20.0939	   21.7765	    6.5348	  -16.3612	
  -55.0000	2.325E-11	2.522E+8	   20.0939	   21.7783	    6.5259	  -16.3761	
  -60.0000	1.912E-11	1.409E+9	   20.0939	   21.7775	    6.5285	  -16.3721	
  -65.0000	1.839E-11	1.564E+9	   20.0939	   21.7770	    6.5225	  -16.3834	
  -70.0000	1.774E-11	1.885E+9	   20.0965	   21.7771	    6.5244	  -16.3799	
  -75.0000	1.716E-11	1.781E+9	   20.0939	   21.7780	    6.5288	  -16.3711	
  -80.0000	1.664E-11	2.089E+9	   20.0939	   21.7800	    6.5199	  -16.3858	
  -85.0000	1.616E-11	1.989E+9	   20.0939	   21.7791	    6.5266	  -16.3743	
  -90.0000	1.573E-11	2.135E+9	   20.0939	   21.7771	    6.5164	  -16.3944	
  -95.0000	1.533E-11	2.199E+9	   20.0939	   21.7759	    6.5247	  -16.3801	
 -100.0000	1.496E-11	2.212E+9	   20.0939	   21.7746	    6.5285	  -16.3741	
 -105.0000	1.462E-11	2.361E+9	   20.0914	   21.7763	    6.5269	  -16.3758	
 -110.0000	1.430E-11	2.871E+9	   20.0939	   21.7764	    6.5177	  -16.3926	
 -115.0000	1.399E-11	3.072E+9	   20.0939	   21.7780	    6.5231	  -16.3815	
 -120.0000	1.371E-11	2.900E+9	   20.0939	   21.7780	    6.5231	  -16.3815	
 -125.0000	1.345E-11	3.362E+9	   20.0939	   21.7780	    6.5108	  -16.4041	
 -130.0000	1.321E-11	3.257E+9	   20.0939	   21.7786	    6.5196	  -16.3874	
 -135.0000	1.298E-11	2.839E+9	   20.0939	   21.7786	    6.5196	  -16.3874	
 -140.0000	1.276E-11	3.211E+9	   20.0939	   21.7806	    6.5231	  -16.3796	
 -145.0000	1.255E-11	3.510E+9	   20.0939	   21.7806	    6.5168	  -16.3912	
 -150.0000	1.235E-11	3.130E+9	   20.0939	   21.7759	    6.5196	  -16.3894	
 -155.0000	1.216E-11	3.238E+9	   20.0939	   21.7837	    6.5133	  -16.3953	
 -160.0000	1.198E-11	3.882E+9	   20.0914	   21.7762	    6.5152	  -16.3973	
 -165.0000	1.181E-11	3.864E+9	   20.0939	   21.7762	    6.5269	  -16.3759	
 -170.0000	1.164E-11	3.379E+9	   20.0939	   21.7740	    6.5101	  -16.4082	
 -175.0000	1.149E-11	3.863E+9	   20.0939	   21.7749	    6.5199	  -16.3895	
 -180.0000	1.133E-11	4.124E+9	   20.0939	   21.7772	    6.5253	  -16.3780	
 -185.0000	1.119E-11	3.777E+9	   20.0939	   21.7694	    6.5060	  -16.4191	
 -190.0000	1.105E-11	3.858E+9	   20.0939	   21.7694	    6.5060	  -16.4191	
 -195.0000	1.091E-11	3.688E+9	   20.0939	   21.7737	    6.5098	  -16.4089	
 -200.0000	1.077E-11	3.379E+9	   20.0914	   21.7775	    6.5190	  -16.3894	
 -205.0000	1.064E-11	3.414E+9	   20.0914	   21.7775	    6.5190	  -16.3894	
 -210.0000	1.052E-11	3.726E+9	   20.0939	   21.7731	    6.5047	  -16.4187	
 -215.0000	1.039E-11	4.099E+9	   20.0939	   21.7704	    6.5152	  -16.4015	
 -220.0000	1.027E-11	3.703E+9	   20.0939	   21.7698	    6.5060	  -16.4188	
 -225.0000	1.014E-11	3.305E+9	   20.0939	   21.7699	    6.5063	  -16.4181	
 -230.0000	1.003E-11	4.153E+9	   20.0939	   21.7738	    6.5082	  -16.4118	
 -235.0000	9.925E-12	3.800E+9	   20.0939	   21.7704	    6.5136	  -16.4044	
 -240.0000	9.834E-12	4.531E+9	   20.0914	   21.7739	    6.5000	  -16.4268	
 -245.0000	9.753E-12	3.717E+9	   20.0914	   21.7739	    6.5000	  -16.4268	
 -250.0000	9.688E-12	3.538E+9	   20.0914	   21.7715	    6.5092	  -16.4118	
 -255.0000	9.651E-12	3.810E+9	   20.0914	   21.7715	    6.5076	  -16.4147	
 -260.0000	9.621E-12	4.090E+9	   20.0939	   21.7656	    6.5063	  -16.4212	
 -265.0000	9.596E-12	3.711E+9	   20.0914	   21.7627	    6.5104	  -16.4158	
 -270.0000	9.584E-12	4.521E+9	   20.0939	   21.7675	    6.5054	  -16.4216	
 -275.0000	9.569E-12	3.834E+9	   20.0939	   21.7625	    6.5028	  -16.4299	
 -280.0000	9.562E-12	3.871E+9	   20.0914	   21.7661	    6.5032	  -16.4267	
 -285.0000	9.548E-12	4.363E+9	   20.0914	   21.7646	    6.5022	  -16.4295	
 -290.0000	9.538E-12	3.766E+9	   20.0914	   21.7661	    6.5104	  -16.4133	
 -295.0000	9.537E-12	4.601E+9	   20.0939	   21.7664	    6.5016	  -16.4294	
 -300.0000	9.524E-12	4.675E+9	   20.0939	   21.7640	    6.5054	  -16.4241	
 -305.0000	9.517E-12	3.884E+9	   20.0914	   21.7632	    6.5035	  -16.4282	
 -310.0000	9.515E-12	4.015E+9	   20.0939	   21.7605	    6.4997	  -16.4372	
 -315.0000	9.508E-12	4.524E+9	   20.0914	   21.7661	    6.4997	  -16.4330	
 -320.0000	9.508E-12	4.137E+9	   20.0914	   21.7622	    6.5047	  -16.4266	
 -325.0000	9.497E-12	3.966E+9	   20.0939	   21.7646	    6.5019	  -16.4301	
 -330.0000	9.502E-12	4.050E+9	   20.0939	   21.7657	    6.5123	  -16.4102	
 -335.0000	9.496E-12	3.843E+9	   20.0939	   21.7657	    6.5123	  -16.4102	
 -340.0000	9.494E-12	4.843E+9	   20.0939	   21.7640	    6.5028	  -16.4288	
 -345.0000	9.486E-12	4.221E+9	   20.0939	   21.7624	    6.4994	  -16.4364	
 -350.0000	9.483E-12	4.453E+9	   20.0939	   21.7585	    6.4959	  -16.4456	
 -355.0000	9.485E-12	3.714E+9	   20.0939	   21.7563	    6.4981	  -16.4431	
 -360.0000	9.481E-12	4.628E+9	   20.0939	   21.7624	    6.5003	  -16.4346	
 -365.0000	9.480E-12	4.294E+9	   20.0939	   21.7600	    6.4930	  -16.4497	
 -370.0000	9.476E-12	3.917E+9	   20.0939	   21.7626	    6.4902	  -16.4530	
 -375.0000	9.474E-12	4.947E+9	   20.0939	   21.7626	    6.4962	  -16.4420	
 -380.0000	9.470E-12	4.576E+9	   20.0939	   21.7611	    6.4899	  -16.4547	
 -385.0000	9.468E-12	3.815E+9	   20.0939	   21.7593	    6.4911	  -16.4537	
 -390.0000	9.467E-12	3.882E+9	   20.0939	   21.7621	    6.4953	  -16.4441	
 -395.0000	9.465E-12	3.723E+9	   20.0914	   21.7621	    6.4930	  -16.4482	
 -400.0000	9.467E-12	4.441E+9	   20.0914	   21.7624	    6.5009	  -16.4334	
 -410.0000	9.458E-12	4.402E+9	   20.0914	   21.7529	    6.4883	  -16.4636	
 -420.0000	9.461E-12	3.738E+9	   20.0939	   21.7529	    6.4937	  -16.4636	
 -430.0000	9.457E-12	3.828E+9	   20.0939	   21.7556	    6.4930	  -16.4529	
 -440.0000	9.453E-12	4.229E+9	   20.0939	   21.7589	    6.4886	  -16.4586	
 -450.0000	9.455E-12	4.886E+9	   20.0914	   21.7572	    6.4870	  -16.4628	
 -460.0000	9.449E-12	4.392E+9	   20.0914	   21.7572	    6.4870	  -16.4628	
 -470.0000	9.449E-12	3.834E+9	   20.0939	   21.7564	    6.4934	  -16.4518	
 -480.0000	9.448E-12	4.652E+9	   20.0914	   21.7555	    6.4892	  -16.4599	
 -490.0000	9.446E-12	5.181E+9	   20.0914	   21.7603	    6.4801	  -16.4733	
 -500.0000	9.442E-12	3.591E+9	   20.0914	   21.7575	    6.4924	  -16.4527	
 -510.0000	9.440E-12	4.146E+9	   20.0888	   21.7553	    6.4981	  -16.4438	
 -520.0000	9.439E-12	4.151E+9	   20.0914	   21.7586	    6.4905	  -16.4553	
 -530.0000	9.438E-12	4.812E+9	   20.0914	   21.7592	    6.4839	  -16.4672	
 -540.0000	9.443E-12	4.431E+9	   20.0914	   21.7575	    6.4845	  -16.4672	
 -550.0000	9.437E-12	4.589E+9	   20.0914	   21.7518	    6.4889	  -16.4632	
 -560.0000	9.433E-12	3.997E+9	   20.0914	   21.7573	    6.4813	  -16.4732	
 -570.0000	9.430E-12	4.145E+9	   20.0914	   21.7549	    6.4915	  -16.4564	
 -580.0000	9.429E-12	3.642E+9	   20.0914	   21.7549	    6.4779	  -16.4814	
 -590.0000	9.433E-12	3.617E+9	   20.0914	   21.7521	    6.4782	  -16.4828	
 -600.0000	9.431E-12	4.427E+9	   20.0914	   21.7537	    6.4836	  -16.4718	
