GCD Test
Bias: 5000.000000
CV_34252_008_PSS_HM_XX_DIODEQUARTER
Date/Time: 4/27/2021 3:34:50 PM
Sensor Name: DIODEQUARTER
Type: P
Annealing Status: Unirradiated
Environment: RT
Tester: Andrew Kent

Time Delay per Ramp Step (s): 0.500

CV Time Delay per Measurement (s) :0.500

AC Voltage (V): 0.500

Current Number of measurements per voltage: 1.000

IV Time Delay per Measurement (s) :0.000


BiasVoltage	LCR_Cp_freqNaN	LCR_Rp_freqNaN	Temperature	Air_Temp	Humidity	Dewpoint	
   -5.0000	1.682E-11	1.684E+9	   22.9986	   23.2326	    6.0626	  -16.2009	
  -10.0000	1.328E-11	2.430E+9	   22.9986	   23.2293	    6.0544	  -16.2195	
  -15.0000	1.159E-11	2.878E+9	   22.9986	   23.2296	    6.0629	  -16.2025	
  -20.0000	1.052E-11	2.746E+9	   23.0012	   23.2296	    6.0525	  -16.2231	
  -25.0000	9.757E-12	2.882E+9	   22.9986	   23.2341	    6.0595	  -16.2060	
  -30.0000	9.162E-12	2.938E+9	   22.9986	   23.2339	    6.0595	  -16.2062	
  -35.0000	8.630E-12	2.939E+9	   23.0012	   23.2339	    6.0851	  -16.1558	
  -40.0000	8.124E-12	2.912E+9	   23.0012	   23.2339	    6.0851	  -16.1558	
  -45.0000	7.569E-12	2.681E+9	   23.0012	   23.2343	    6.1110	  -16.1046	
  -50.0000	7.004E-12	2.824E+9	   22.9986	   23.2346	    6.1082	  -16.1100	
  -55.0000	6.718E-12	2.955E+9	   22.9986	   23.2329	    6.0984	  -16.1304	
  -60.0000	6.607E-12	2.746E+9	   23.0012	   23.2367	    6.1025	  -16.1196	
  -65.0000	5.642E-12	5.869E+8	   23.0012	   23.2326	    6.1022	  -16.1232	
  -70.0000	5.530E-12	8.737E+8	   23.0012	   23.2364	    6.0822	  -16.1596	
  -75.0000	5.489E-12	9.492E+8	   23.0012	   23.2350	    6.0854	  -16.1544	
  -80.0000	5.449E-12	9.428E+8	   23.0012	   23.2380	    6.0898	  -16.1435	
  -85.0000	5.407E-12	1.022E+9	   23.0012	   23.2311	    6.0870	  -16.1541	
  -90.0000	5.368E-12	1.174E+9	   23.0012	   23.2316	    6.0917	  -16.1444	
  -95.0000	5.341E-12	1.272E+9	   23.0038	   23.2316	    6.1037	  -16.1208	
 -100.0000	5.312E-12	1.347E+9	   23.0038	   23.2377	    6.1072	  -16.1096	
 -105.0000	5.288E-12	1.383E+9	   23.0012	   23.2378	    6.1037	  -16.1164	
 -110.0000	5.267E-12	1.434E+9	   23.0038	   23.2327	    6.0901	  -16.1467	
 -115.0000	5.248E-12	1.489E+9	   23.0012	   23.2345	    6.1053	  -16.1156	
 -120.0000	5.229E-12	1.550E+9	   23.0012	   23.2345	    6.1053	  -16.1156	
 -125.0000	5.215E-12	1.611E+9	   23.0038	   23.2337	    6.0731	  -16.1795	
 -130.0000	5.198E-12	1.669E+9	   23.0012	   23.2354	    6.0610	  -16.2020	
 -135.0000	5.185E-12	1.625E+9	   23.0012	   23.2354	    6.0610	  -16.2020	
 -140.0000	5.167E-12	1.625E+9	   23.0012	   23.2371	    6.0576	  -16.2076	
 -145.0000	5.152E-12	1.648E+9	   23.0038	   23.2358	    6.0459	  -16.2317	
 -150.0000	5.141E-12	1.640E+9	   23.0012	   23.2306	    6.0585	  -16.2104	
 -155.0000	5.125E-12	1.743E+9	   23.0038	   23.2362	    6.0493	  -16.2245	
 -160.0000	5.117E-12	1.783E+9	   23.0038	   23.2321	    6.0411	  -16.2437	
 -165.0000	5.106E-12	1.689E+9	   23.0038	   23.2342	    6.0490	  -16.2266	
 -170.0000	5.095E-12	1.775E+9	   23.0038	   23.2329	    6.0487	  -16.2281	
 -175.0000	5.083E-12	1.775E+9	   23.0038	   23.2322	    6.0421	  -16.2418	
 -180.0000	5.072E-12	1.800E+9	   23.0012	   23.2329	    6.0417	  -16.2419	
 -185.0000	5.063E-12	1.893E+9	   23.0012	   23.2329	    6.0417	  -16.2419	
 -190.0000	5.055E-12	1.832E+9	   23.0038	   23.2307	    6.0478	  -16.2316	
 -195.0000	5.046E-12	1.873E+9	   23.0038	   23.2346	    6.0367	  -16.2506	
 -200.0000	5.038E-12	1.987E+9	   23.0038	   23.2309	    6.0497	  -16.2277	
 -205.0000	5.030E-12	1.930E+9	   23.0038	   23.2327	    6.0455	  -16.2345	
 -210.0000	5.019E-12	2.013E+9	   23.0038	   23.2327	    6.0455	  -16.2345	
 -215.0000	5.015E-12	1.989E+9	   23.0038	   23.2317	    6.0484	  -16.2296	
 -220.0000	5.006E-12	2.182E+9	   23.0038	   23.2345	    6.0538	  -16.2170	
 -225.0000	4.997E-12	2.126E+9	   23.0038	   23.2306	    6.0572	  -16.2129	
 -230.0000	4.977E-12	3.026E+9	   23.0038	   23.2276	    6.0509	  -16.2276	
 -235.0000	4.976E-12	3.037E+9	   23.0038	   23.2289	    6.0639	  -16.2011	
 -240.0000	4.971E-12	3.215E+9	   23.0038	   23.2319	    6.0474	  -16.2314	
 -245.0000	4.964E-12	3.062E+9	   23.0038	   23.2269	    6.0370	  -16.2556	
 -250.0000	4.959E-12	3.260E+9	   23.0038	   23.2232	    6.0354	  -16.2614	
 -255.0000	4.955E-12	3.330E+9	   23.0038	   23.2232	    6.0225	  -16.2871	
 -260.0000	4.952E-12	3.328E+9	   23.0063	   23.2278	    6.0139	  -16.3007	
 -265.0000	4.951E-12	3.426E+9	   23.0038	   23.2243	    6.0133	  -16.3045	
 -270.0000	4.947E-12	2.997E+9	   23.0038	   23.2246	    5.9991	  -16.3325	
 -275.0000	4.944E-12	3.274E+9	   23.0038	   23.2280	    5.9968	  -16.3345	
 -280.0000	4.941E-12	3.438E+9	   23.0038	   23.2277	    5.9896	  -16.3492	
 -285.0000	4.936E-12	3.349E+9	   23.0038	   23.2270	    5.9677	  -16.3932	
 -290.0000	4.937E-12	3.009E+9	   23.0063	   23.2267	    5.9696	  -16.3897	
 -295.0000	4.933E-12	3.187E+9	   23.0038	   23.2241	    5.9548	  -16.4213	
 -300.0000	4.935E-12	3.458E+9	   23.0038	   23.2254	    5.9510	  -16.4280	
 -305.0000	4.933E-12	3.355E+9	   23.0038	   23.2226	    5.9352	  -16.4617	
 -310.0000	4.933E-12	3.296E+9	   23.0038	   23.2281	    5.9383	  -16.4514	
 -315.0000	4.935E-12	3.673E+9	   23.0063	   23.2244	    5.9250	  -16.4808	
 -320.0000	4.933E-12	3.359E+9	   23.0063	   23.2244	    5.9250	  -16.4808	
 -325.0000	4.931E-12	3.435E+9	   23.0063	   23.2276	    5.9054	  -16.5180	
 -330.0000	4.927E-12	3.175E+9	   23.0038	   23.2267	    5.9083	  -16.5129	
 -335.0000	4.930E-12	3.336E+9	   23.0038	   23.2264	    5.9013	  -16.5272	
 -340.0000	4.928E-12	3.228E+9	   23.0063	   23.2269	    5.8963	  -16.5370	
 -345.0000	4.928E-12	3.207E+9	   23.0063	   23.2259	    5.8858	  -16.5589	
 -350.0000	4.928E-12	3.104E+9	   23.0038	   23.2259	    5.8748	  -16.5813	
 -355.0000	4.930E-12	3.353E+9	   23.0038	   23.2246	    5.8814	  -16.5688	
 -360.0000	4.928E-12	2.935E+9	   23.0038	   23.2274	    5.8751	  -16.5795	
 -365.0000	4.926E-12	3.405E+9	   23.0063	   23.2242	    5.8583	  -16.6159	
 -370.0000	4.925E-12	3.334E+9	   23.0063	   23.2242	    5.8583	  -16.6159	
 -375.0000	4.924E-12	3.340E+9	   23.0063	   23.2289	    5.8542	  -16.6209	
 -380.0000	4.924E-12	3.302E+9	   23.0063	   23.2289	    5.8542	  -16.6209	
 -385.0000	4.925E-12	3.380E+9	   23.0063	   23.2253	    5.8514	  -16.6292	
 -390.0000	4.921E-12	3.338E+9	   23.0063	   23.2253	    5.8476	  -16.6369	
 -395.0000	4.921E-12	3.513E+9	   23.0063	   23.2272	    5.8397	  -16.6517	
 -400.0000	4.924E-12	3.424E+9	   23.0063	   23.2303	    5.8302	  -16.6688	
 -410.0000	4.922E-12	3.336E+9	   23.0063	   23.2286	    5.8245	  -16.6817	
 -420.0000	4.920E-12	3.459E+9	   23.0063	   23.2286	    5.8207	  -16.6894	
 -430.0000	4.923E-12	3.527E+9	   23.0063	   23.2264	    5.8204	  -16.6916	
 -440.0000	4.915E-12	3.295E+9	   23.0063	   23.2264	    5.8204	  -16.6916	
 -450.0000	4.921E-12	3.392E+9	   23.0063	   23.2312	    5.8182	  -16.6927	
 -460.0000	4.920E-12	3.569E+9	   23.0063	   23.2293	    5.8121	  -16.7064	
 -470.0000	4.922E-12	3.377E+9	   23.0063	   23.2278	    5.8242	  -16.6829	
 -480.0000	4.920E-12	3.321E+9	   23.0063	   23.2336	    5.8096	  -16.7085	
 -490.0000	4.919E-12	3.610E+9	   23.0063	   23.2307	    5.8159	  -16.6976	
 -500.0000	4.920E-12	3.607E+9	   23.0063	   23.2316	    5.8049	  -16.7196	
 -510.0000	4.919E-12	3.345E+9	   23.0063	   23.2283	    5.8147	  -16.7020	
 -520.0000	4.916E-12	3.424E+9	   23.0063	   23.2272	    5.8030	  -16.7267	
 -530.0000	4.917E-12	3.458E+9	   23.0063	   23.2291	    5.7910	  -16.7500	
 -540.0000	4.922E-12	3.493E+9	   23.0089	   23.2349	    5.7963	  -16.7348	
 -550.0000	4.916E-12	3.406E+9	   23.0063	   23.2337	    5.7894	  -16.7499	
 -560.0000	4.918E-12	3.353E+9	   23.0063	   23.2300	    5.7938	  -16.7435	
 -570.0000	4.914E-12	3.468E+9	   23.0089	   23.2331	    5.7954	  -16.7380	
 -580.0000	4.919E-12	3.581E+9	   23.0089	   23.2331	    5.7887	  -16.7516	
 -590.0000	4.921E-12	3.421E+9	   23.0089	   23.2340	    5.7815	  -16.7659	
 -600.0000	4.916E-12	3.353E+9	   23.0089	   23.2322	    5.7922	  -16.7451	
