GCD Test
Bias: 5000.000000
IV_38695_044_2-S_HM_XX_DIODEHALF
Date/Time: 2/11/2022 11:01:42 AM
Sensor Name: DIODEHALF
Type: 
Annealing Status: Not Irradiated
Environment: 
Tester: Andrew Kent

Time Delay per Ramp Step (s): 0.500

CV Time Delay per Measurement (s) :0.500

AC Voltage (V): 0.500

Current Number of measurements per voltage: 1.000

IV Time Delay per Measurement (s) :0.000


BiasVoltage	Total Current_Avg	Total Current_0	Bias Current_Avg	Bias Current_0	Temperature	Air_Temp	Humidity	Dewpoint	
  -10.0000	2.8000E-10	2.8000E-10	-8.401547E-11	-8.401547E-11	   19.9987	   21.6563	   21.0961	   -1.5362	
  -20.0000	1.9700E-10	1.9700E-10	-9.073976E-11	-9.073976E-11	   20.0064	   21.6591	   21.0936	   -1.5356	
  -30.0000	1.0100E-10	1.0100E-10	-9.877175E-11	-9.877175E-11	   20.0116	   21.6550	   21.0927	   -1.5395	
  -40.0000	-5.3000E-11	-5.3000E-11	-1.085490E-10	-1.085490E-10	   20.0142	   21.6628	   21.0854	   -1.5378	
  -50.0000	-1.3600E-10	-1.3600E-10	-1.182062E-10	-1.182062E-10	   20.0167	   21.6641	   21.0791	   -1.5408	
  -60.0000	-2.0200E-10	-2.0200E-10	-1.242839E-10	-1.242839E-10	   20.0142	   21.6593	   21.0769	   -1.5462	
  -70.0000	-2.4100E-10	-2.4100E-10	-1.262221E-10	-1.262221E-10	   20.0116	   21.6635	   21.0727	   -1.5454	
  -80.0000	-2.7900E-10	-2.7900E-10	-1.281201E-10	-1.281201E-10	   20.0064	   21.6625	   21.0614	   -1.5535	
  -90.0000	-3.1300E-10	-3.1300E-10	-1.297830E-10	-1.297830E-10	   20.0039	   21.6666	   21.0667	   -1.5467	
 -100.0000	-2.2600E-10	-2.2600E-10	-1.305598E-10	-1.305598E-10	   19.9961	   21.6700	   21.0576	   -1.5497	
 -110.0000	-3.3100E-10	-3.3100E-10	-1.311581E-10	-1.311581E-10	   19.9884	   21.6700	   21.0604	   -1.5497	
 -120.0000	-3.6900E-10	-3.6900E-10	-1.319544E-10	-1.319544E-10	   19.9884	   21.6698	   21.0604	   -1.5481	
 -130.0000	-3.2100E-10	-3.2100E-10	-1.326686E-10	-1.326686E-10	   19.9858	   21.6709	   21.0614	   -1.5465	
 -140.0000	-4.3400E-10	-4.3400E-10	-1.334545E-10	-1.334545E-10	   19.9858	   21.6709	   21.0541	   -1.5465	
 -150.0000	-3.2500E-10	-3.2500E-10	-1.348195E-10	-1.348195E-10	   19.9884	   21.6709	   21.0566	   -1.5512	
 -160.0000	-3.6100E-10	-3.6100E-10	-1.357411E-10	-1.357411E-10	   19.9884	   21.6733	   21.0566	   -1.5476	
 -170.0000	-3.9000E-10	-3.9000E-10	-1.374357E-10	-1.374357E-10	   19.9936	   21.6769	   21.0500	   -1.5489	
 -180.0000	-5.2900E-10	-5.2900E-10	-1.401464E-10	-1.401464E-10	   19.9987	   21.6776	   21.0569	   -1.5438	
 -190.0000	-4.5200E-10	-4.5200E-10	-1.415498E-10	-1.415498E-10	   20.0064	   21.6759	   21.0497	   -1.5499	
 -200.0000	-5.2400E-10	-5.2400E-10	-1.450322E-10	-1.450322E-10	   20.0090	   21.6829	   21.0452	   -1.5469	
 -210.0000	-5.3900E-10	-5.3900E-10	-1.491717E-10	-1.491717E-10	   20.0142	   21.6775	   21.0509	   -1.5478	
 -220.0000	-6.0700E-10	-6.0700E-10	-1.529321E-10	-1.529321E-10	   20.0167	   21.6787	   21.0468	   -1.5495	
 -230.0000	-5.2200E-10	-5.2200E-10	-1.553428E-10	-1.553428E-10	   20.0167	   21.6837	   21.0528	   -1.5414	
 -240.0000	-5.6800E-10	-5.6800E-10	-1.575434E-10	-1.575434E-10	   20.0142	   21.6817	   21.0411	   -1.5506	
 -250.0000	-5.5700E-10	-5.5700E-10	-1.595789E-10	-1.595789E-10	   20.0090	   21.6817	   21.0490	   -1.5455	
 -260.0000	-6.1000E-10	-6.1000E-10	-1.618074E-10	-1.618074E-10	   20.0013	   21.6777	   21.0414	   -1.5538	
 -270.0000	-6.8800E-10	-6.8800E-10	-1.626756E-10	-1.626756E-10	   20.0013	   21.6793	   21.0459	   -1.5495	
 -280.0000	-6.5700E-10	-6.5700E-10	-1.642852E-10	-1.642852E-10	   19.9936	   21.6793	   21.0471	   -1.5487	
 -290.0000	-6.6800E-10	-6.6800E-10	-1.656539E-10	-1.656539E-10	   19.9884	   21.6761	   21.0446	   -1.5531	
 -300.0000	-6.9900E-10	-6.9900E-10	-1.675346E-10	-1.675346E-10	   19.9833	   21.6772	   21.0481	   -1.5499	
 -310.0000	-6.6200E-10	-6.6200E-10	-1.678840E-10	-1.678840E-10	   19.9807	   21.6747	   21.0443	   -1.5544	
 -320.0000	-6.7200E-10	-6.7200E-10	-1.696681E-10	-1.696681E-10	   19.9833	   21.6793	   21.0285	   -1.5608	
 -330.0000	-8.0300E-10	-8.0300E-10	-1.708798E-10	-1.708798E-10	   19.9910	   21.6793	   21.0446	   -1.5608	
 -340.0000	-7.4900E-10	-7.4900E-10	-1.724988E-10	-1.724988E-10	   19.9961	   21.6793	   21.0370	   -1.5504	
 -350.0000	-7.5700E-10	-7.5700E-10	-1.730537E-10	-1.730537E-10	   20.0039	   21.6844	   21.0433	   -1.5510	
 -360.0000	-8.3600E-10	-8.3600E-10	-1.741940E-10	-1.741940E-10	   20.0039	   21.6773	   21.0433	   -1.5529	
 -370.0000	-8.6700E-10	-8.6700E-10	-1.749235E-10	-1.749235E-10	   20.0116	   21.6818	   21.0338	   -1.5552	
 -380.0000	-8.3000E-10	-8.3000E-10	-1.761538E-10	-1.761538E-10	   20.0167	   21.6800	   21.0468	   -1.5483	
 -390.0000	-8.4700E-10	-8.4700E-10	-1.770909E-10	-1.770909E-10	   20.0193	   21.6777	   21.0452	   -1.5513	
 -400.0000	-8.5200E-10	-8.5200E-10	-1.781825E-10	-1.781825E-10	   20.0193	   21.6785	   21.0370	   -1.5559	
 -420.0000	-9.8200E-10	-9.8200E-10	-1.806891E-10	-1.806891E-10	   20.0193	   21.6785	   21.0370	   -1.5559	
 -440.0000	-1.0920E-9	-1.0920E-9	-1.815298E-10	-1.815298E-10	   20.0142	   21.6785	   21.0348	   -1.5573	
 -460.0000	-1.1670E-9	-1.1670E-9	-1.828177E-10	-1.828177E-10	   20.0090	   21.6751	   21.0405	   -1.5565	
 -480.0000	-1.1910E-9	-1.1910E-9	-1.844413E-10	-1.844413E-10	   20.0039	   21.6748	   21.0465	   -1.5528	
 -500.0000	-1.2370E-9	-1.2370E-9	-1.858640E-10	-1.858640E-10	   19.9961	   21.6764	   21.0354	   -1.5587	
 -520.0000	-1.4220E-9	-1.4220E-9	-1.872182E-10	-1.872182E-10	   19.9910	   21.6737	   21.0345	   -1.5615	
 -540.0000	-1.3720E-9	-1.3720E-9	-1.885830E-10	-1.885830E-10	   19.9833	   21.6737	   21.0297	   -1.5615	
 -560.0000	-1.4010E-9	-1.4010E-9	-1.897980E-10	-1.897980E-10	   19.9833	   21.6737	   21.0297	   -1.5646	
 -580.0000	-1.4690E-9	-1.4690E-9	-1.914358E-10	-1.914358E-10	   19.9807	   21.6771	   21.0367	   -1.5573	
 -600.0000	-1.5460E-9	-1.5460E-9	-1.929768E-10	-1.929768E-10	   19.9807	   21.6778	   21.0240	   -1.5649	
 -620.0000	-1.6440E-9	-1.6440E-9	-1.943473E-10	-1.943473E-10	   19.9833	   21.6778	   21.0354	   -1.5649	
 -640.0000	-1.5700E-9	-1.5700E-9	-1.958330E-10	-1.958330E-10	   19.9833	   21.6692	   21.0354	   -1.5646	
 -660.0000	-1.5900E-9	-1.5900E-9	-1.974734E-10	-1.974734E-10	   19.9910	   21.6725	   21.0354	   -1.5620	
 -680.0000	-1.6360E-9	-1.6360E-9	-1.988943E-10	-1.988943E-10	   19.9961	   21.6719	   21.0383	   -1.5606	
 -700.0000	-1.7290E-9	-1.7290E-9	-2.000210E-10	-2.000210E-10	   20.0039	   21.6697	   21.0338	   -1.5653	
 -720.0000	-1.7560E-9	-1.7560E-9	-2.011968E-10	-2.011968E-10	   20.0142	   21.6697	   21.0345	   -1.5653	
 -740.0000	-1.7740E-9	-1.7740E-9	-2.029728E-10	-2.029728E-10	   20.0142	   21.6738	   21.0345	   -1.5614	
 -760.0000	-1.8100E-9	-1.8100E-9	-2.047295E-10	-2.047295E-10	   20.0193	   21.6704	   21.0190	   -1.5743	
 -780.0000	-1.8650E-9	-1.8650E-9	-2.056578E-10	-2.056578E-10	   20.0219	   21.6675	   21.0253	   -1.5726	
 -800.0000	-1.8520E-9	-1.8520E-9	-2.072743E-10	-2.072743E-10	   20.0193	   21.6675	   21.0319	   -1.5726	
 -820.0000	-1.9020E-9	-1.9020E-9	-2.088882E-10	-2.088882E-10	   20.0193	   21.6687	   21.0319	   -1.5674	
 -840.0000	-1.8830E-9	-1.8830E-9	-2.103919E-10	-2.103919E-10	   20.0142	   21.6736	   21.0234	   -1.5688	
 -860.0000	-1.8960E-9	-1.8960E-9	-2.119840E-10	-2.119840E-10	   20.0090	   21.6696	   21.0240	   -1.5717	
 -880.0000	-1.9440E-9	-1.9440E-9	-2.144699E-10	-2.144699E-10	   20.0013	   21.6706	   21.0294	   -1.5674	
 -900.0000	-2.0600E-9	-2.0600E-9	-2.171763E-10	-2.171763E-10	   19.9910	   21.6706	   21.0310	   -1.5674	
 -920.0000	-2.0690E-9	-2.0690E-9	-2.191896E-10	-2.191896E-10	   19.9910	   21.6674	   21.0310	   -1.5691	
 -940.0000	-2.1090E-9	-2.1090E-9	-2.226433E-10	-2.226433E-10	   19.9833	   21.6686	   21.0218	   -1.5740	
 -960.0000	-2.1030E-9	-2.1030E-9	-2.256374E-10	-2.256374E-10	   19.9807	   21.6664	   21.0202	   -1.5768	
 -980.0000	-2.1610E-9	-2.1610E-9	-2.297782E-10	-2.297782E-10	   19.9781	   21.6664	   21.0269	   -1.5768	
-1000.0000	-2.2310E-9	-2.2310E-9	-2.341088E-10	-2.341088E-10	   19.9781	   21.6645	   21.0269	   -1.5741	
