GCD Test
Bias: 5000.000000
IV_38695_044_2-S_HM_XX_DIODEQUARTER
Date/Time: 2/11/2022 11:42:17 AM
Sensor Name: DIODEQUARTER
Type: 
Annealing Status: Not Irradiated
Environment: 
Tester: Andrew Kent

Time Delay per Ramp Step (s): 0.500

CV Time Delay per Measurement (s) :0.500

AC Voltage (V): 0.500

Current Number of measurements per voltage: 1.000

IV Time Delay per Measurement (s) :0.000


BiasVoltage	Total Current_Avg	Total Current_0	Bias Current_Avg	Bias Current_0	Temperature	Air_Temp	Humidity	Dewpoint	
  -10.0000	-4.2000E-11	-4.2000E-11	-4.716665E-11	-4.716665E-11	   19.9936	   21.5170	   21.3552	   -1.4862	
  -20.0000	-6.0000E-11	-6.0000E-11	-5.042564E-11	-5.042564E-11	   20.0013	   21.5159	   21.3441	   -1.4942	
  -30.0000	-9.7000E-11	-9.7000E-11	-5.511715E-11	-5.511715E-11	   20.0090	   21.5132	   21.3387	   -1.4998	
  -40.0000	-2.7200E-10	-2.7200E-10	-6.064550E-11	-6.064550E-11	   20.0167	   21.5093	   21.3273	   -1.5103	
  -50.0000	-3.3800E-10	-3.3800E-10	-6.921325E-11	-6.921325E-11	   20.0219	   21.5235	   21.3305	   -1.4965	
  -60.0000	-3.7700E-10	-3.7700E-10	-7.218599E-11	-7.218599E-11	   20.0193	   21.5403	   21.3264	   -1.4852	
  -70.0000	-3.5700E-10	-3.5700E-10	-7.370997E-11	-7.370997E-11	   20.0193	   21.5403	   21.3219	   -1.4852	
  -80.0000	-3.2800E-10	-3.2800E-10	-7.476929E-11	-7.476929E-11	   20.0116	   21.5239	   21.3185	   -1.5016	
  -90.0000	-4.4100E-10	-4.4100E-10	-7.503227E-11	-7.503227E-11	   20.0039	   21.5392	   21.3046	   -1.4911	
 -100.0000	-4.1300E-10	-4.1300E-10	-7.554464E-11	-7.554464E-11	   19.9936	   21.5370	   21.3014	   -1.5018	
 -110.0000	-4.3400E-10	-4.3400E-10	-7.606697E-11	-7.606697E-11	   19.9936	   21.5259	   21.3014	   -1.5130	
 -120.0000	-4.4400E-10	-4.4400E-10	-7.676139E-11	-7.676139E-11	   19.9858	   21.5275	   21.2992	   -1.5131	
 -130.0000	-4.8900E-10	-4.8900E-10	-7.694738E-11	-7.694738E-11	   19.9807	   21.5586	   21.3004	   -1.4865	
 -140.0000	-4.0200E-10	-4.0200E-10	-7.711605E-11	-7.711605E-11	   19.9781	   21.5427	   21.2973	   -1.5017	
 -150.0000	-4.7300E-10	-4.7300E-10	-7.786734E-11	-7.786734E-11	   19.9755	   21.5274	   21.3004	   -1.5124	
 -160.0000	-4.5100E-10	-4.5100E-10	-7.802967E-11	-7.802967E-11	   19.9781	   21.5383	   21.2989	   -1.5044	
 -170.0000	-4.9000E-10	-4.9000E-10	-7.901403E-11	-7.901403E-11	   19.9833	   21.5405	   21.2865	   -1.5104	
 -180.0000	-5.2900E-10	-5.2900E-10	-8.054393E-11	-8.054393E-11	   19.9910	   21.5360	   21.2887	   -1.5128	
 -190.0000	-4.9000E-10	-4.9000E-10	-8.106664E-11	-8.106664E-11	   19.9987	   21.5135	   21.2919	   -1.5294	
 -200.0000	-6.3800E-10	-6.3800E-10	-8.281834E-11	-8.281834E-11	   20.0090	   21.5365	   21.2802	   -1.5177	
 -210.0000	-5.2500E-10	-5.2500E-10	-8.367089E-11	-8.367089E-11	   20.0167	   21.5546	   21.2827	   -1.5011	
 -220.0000	-6.3800E-10	-6.3800E-10	-8.588262E-11	-8.588262E-11	   20.0245	   21.5504	   21.2774	   -1.5080	
 -230.0000	-6.8400E-10	-6.8400E-10	-8.652981E-11	-8.652981E-11	   20.0270	   21.5404	   21.2770	   -1.5166	
 -240.0000	-5.9600E-10	-5.9600E-10	-8.743307E-11	-8.743307E-11	   20.0270	   21.5573	   21.2846	   -1.4976	
 -250.0000	-6.9900E-10	-6.9900E-10	-8.847179E-11	-8.847179E-11	   20.0219	   21.5588	   21.2688	   -1.5065	
 -260.0000	-6.1100E-10	-6.1100E-10	-8.940380E-11	-8.940380E-11	   20.0167	   21.5532	   21.2849	   -1.5008	
 -270.0000	-6.4300E-10	-6.4300E-10	-9.002655E-11	-9.002655E-11	   20.0064	   21.5560	   21.2796	   -1.5020	
 -280.0000	-7.4600E-10	-7.4600E-10	-9.052872E-11	-9.052872E-11	   19.9987	   21.5551	   21.2691	   -1.5094	
 -290.0000	-6.4200E-10	-6.4200E-10	-9.145353E-11	-9.145353E-11	   19.9884	   21.5459	   21.2751	   -1.5131	
 -300.0000	-7.7600E-10	-7.7600E-10	-9.182043E-11	-9.182043E-11	   19.9807	   21.5581	   21.2698	   -1.5065	
 -310.0000	-7.1300E-10	-7.1300E-10	-9.279374E-11	-9.279374E-11	   19.9755	   21.5489	   21.2713	   -1.5131	
 -320.0000	-6.8200E-10	-6.8200E-10	-9.381169E-11	-9.381169E-11	   19.9730	   21.5536	   21.2688	   -1.5108	
 -330.0000	-8.1800E-10	-8.1800E-10	-9.421929E-11	-9.421929E-11	   19.9807	   21.5536	   21.2606	   -1.5108	
 -340.0000	-7.9900E-10	-7.9900E-10	-9.563512E-11	-9.563512E-11	   19.9858	   21.5616	   21.2606	   -1.5094	
 -350.0000	-7.4100E-10	-7.4100E-10	-9.586594E-11	-9.586594E-11	   19.9961	   21.5498	   21.2676	   -1.5192	
 -360.0000	-8.4100E-10	-8.4100E-10	-9.569627E-11	-9.569627E-11	   20.0064	   21.5498	   21.2593	   -1.5148	
 -370.0000	-8.4600E-10	-8.4600E-10	-9.646258E-11	-9.646258E-11	   20.0142	   21.5535	   21.2596	   -1.5170	
 -380.0000	-7.5800E-10	-7.5800E-10	-9.751534E-11	-9.751534E-11	   20.0142	   21.5617	   21.2596	   -1.5099	
 -390.0000	-8.7100E-10	-8.7100E-10	-9.755712E-11	-9.755712E-11	   20.0219	   21.5500	   21.2565	   -1.5217	
 -400.0000	-8.7400E-10	-8.7400E-10	-9.782047E-11	-9.782047E-11	   20.0270	   21.5595	   21.2559	   -1.5142	
 -420.0000	-1.0330E-9	-1.0330E-9	-9.866671E-11	-9.866671E-11	   20.0270	   21.5502	   21.2612	   -1.5185	
 -440.0000	-1.1360E-9	-1.1360E-9	-1.000100E-10	-1.000100E-10	   20.0245	   21.5570	   21.2615	   -1.5126	
 -460.0000	-1.1180E-9	-1.1180E-9	-1.007635E-10	-1.007635E-10	   20.0167	   21.5495	   21.2574	   -1.5215	
 -480.0000	-1.1710E-9	-1.1710E-9	-1.014403E-10	-1.014403E-10	   20.0039	   21.5495	   21.2615	   -1.5215	
 -500.0000	-1.2300E-9	-1.2300E-9	-1.020144E-10	-1.020144E-10	   20.0039	   21.5690	   21.2615	   -1.5027	
 -520.0000	-1.2820E-9	-1.2820E-9	-1.028427E-10	-1.028427E-10	   19.9961	   21.5605	   21.2473	   -1.5188	
 -540.0000	-1.3840E-9	-1.3840E-9	-1.026540E-10	-1.026540E-10	   19.9858	   21.5683	   21.2540	   -1.5081	
 -560.0000	-1.3900E-9	-1.3900E-9	-1.027936E-10	-1.027936E-10	   19.9781	   21.5522	   21.2533	   -1.5219	
 -580.0000	-1.5350E-9	-1.5350E-9	-1.052263E-10	-1.052263E-10	   19.9730	   21.5522	   21.2416	   -1.5219	
 -600.0000	-1.4440E-9	-1.4440E-9	-1.049623E-10	-1.049623E-10	   19.9730	   21.5532	   21.2416	   -1.5285	
 -620.0000	-1.4880E-9	-1.4880E-9	-1.064471E-10	-1.064471E-10	   19.9730	   21.5771	   21.2533	   -1.5012	
 -640.0000	-1.6400E-9	-1.6400E-9	-1.072257E-10	-1.072257E-10	   19.9807	   21.5771	   21.2517	   -1.5012	
 -660.0000	-1.6850E-9	-1.6850E-9	-1.082787E-10	-1.082787E-10	   19.9807	   21.5647	   21.2517	   -1.5125	
 -680.0000	-1.6360E-9	-1.6360E-9	-1.088713E-10	-1.088713E-10	   19.9910	   21.5544	   21.2524	   -1.5206	
 -700.0000	-1.6830E-9	-1.6830E-9	-1.095001E-10	-1.095001E-10	   20.0013	   21.5591	   21.2498	   -1.5183	
 -720.0000	-1.6400E-9	-1.6400E-9	-1.107658E-10	-1.107658E-10	   20.0142	   21.5591	   21.2514	   -1.5183	
 -740.0000	-1.7480E-9	-1.7480E-9	-1.117204E-10	-1.117204E-10	   20.0142	   21.5591	   21.2514	   -1.5173	
 -760.0000	-1.7870E-9	-1.7870E-9	-1.126153E-10	-1.126153E-10	   20.0219	   21.5548	   21.2489	   -1.5226	
 -780.0000	-1.8290E-9	-1.8290E-9	-1.130721E-10	-1.130721E-10	   20.0270	   21.5580	   21.2546	   -1.5163	
 -800.0000	-1.7850E-9	-1.7850E-9	-1.145306E-10	-1.145306E-10	   20.0296	   21.5580	   21.2400	   -1.5163	
 -820.0000	-1.7710E-9	-1.7710E-9	-1.155176E-10	-1.155176E-10	   20.0296	   21.5580	   21.2400	   -1.5256	
 -840.0000	-1.8440E-9	-1.8440E-9	-1.169414E-10	-1.169414E-10	   20.0245	   21.5726	   21.2460	   -1.5096	
 -860.0000	-1.8660E-9	-1.8660E-9	-1.178167E-10	-1.178167E-10	   20.0167	   21.5616	   21.2419	   -1.5213	
 -880.0000	-2.0050E-9	-2.0050E-9	-1.194513E-10	-1.194513E-10	   20.0090	   21.5608	   21.2467	   -1.5190	
 -900.0000	-1.8760E-9	-1.8760E-9	-1.208131E-10	-1.208131E-10	   19.9961	   21.5608	   21.2514	   -1.5190	
 -920.0000	-1.9130E-9	-1.9130E-9	-1.229072E-10	-1.229072E-10	   19.9961	   21.5608	   21.2514	   -1.5160	
 -940.0000	-1.9560E-9	-1.9560E-9	-1.253787E-10	-1.253787E-10	   19.9884	   21.5677	   21.2356	   -1.5204	
 -960.0000	-2.0960E-9	-2.0960E-9	-1.277803E-10	-1.277803E-10	   19.9781	   21.5645	   21.2441	   -1.5175	
 -980.0000	-2.0020E-9	-2.0020E-9	-1.308879E-10	-1.308879E-10	   19.9755	   21.5488	   21.2448	   -1.5302	
-1000.0000	-2.0500E-9	-2.0500E-9	-1.340388E-10	-1.340388E-10	   19.9755	   21.5488	   21.2479	   -1.5302	
