GCD Test
Bias: 5000.000000
IV_36696_039_PSS_HM_XX_DIODE_Irradiated
Date/Time: 9/20/2021 1:55:41 PM
Sensor Name: DIODE
Type: P
Annealing Status: Irradiated and Annealed for 80min at 60C
Environment: -20C
Tester: Andrew Kent

Time Delay per Ramp Step (s): 1.000

CV Time Delay per Measurement (s) :0.500

AC Voltage (V): 0.500

Current Number of measurements per voltage: 4.000

IV Time Delay per Measurement (s) :0.000


BiasVoltage	Total Current_Avg	Total Current_0	Total Current_1	Total Current_2	Total Current_3	Bias Current_Avg	Bias Current_0	Bias Current_1	Bias Current_2	Bias Current_3	Temperature	Air_Temp	Humidity	Dewpoint	
  -10.0000	 1.9738E-9	 1.8310E-9	 2.2860E-9	 1.9800E-9	 1.7980E-9	-2.408320E-9	3.523329E-9	-3.801620E-9	-4.672452E-9	-4.682536E-9	  -20.0033	    9.1597	    2.9020	  -34.1635	
  -20.0000	8.9125E-10	5.5500E-10	8.7400E-10	 1.0040E-9	 1.1320E-9	-5.618508E-9	-5.608424E-9	-5.661802E-9	-5.629211E-9	-5.574595E-9	  -20.0033	    9.0713	    2.9108	  -34.1930	
  -30.0000	2.2350E-10	1.6000E-11	5.4700E-10	1.6100E-10	1.7000E-10	-6.180176E-9	-6.294949E-9	-6.174270E-9	-6.149729E-9	-6.101756E-9	  -20.0084	    9.0654	    2.8988	  -34.2388	
  -40.0000	-3.5325E-10	-6.1400E-10	-5.3700E-10	-1.4100E-10	-1.2100E-10	-6.679413E-9	-6.655801E-9	-6.635365E-9	-6.654343E-9	-6.772145E-9	  -20.0033	    9.0654	    2.9200	  -34.1653	
  -50.0000	-9.0375E-10	-6.3900E-10	-9.0100E-10	-9.2300E-10	-1.1520E-9	-6.948462E-9	-6.924966E-9	-7.037892E-9	-6.852594E-9	-6.978397E-9	  -20.0059	    9.0996	    2.9029	  -34.2012	
  -60.0000	-1.3277E-9	-1.6310E-9	-1.0180E-9	-1.3090E-9	-1.3530E-9	-7.336194E-9	-7.295229E-9	-7.344804E-9	-7.372643E-9	-7.332098E-9	  -20.0059	    9.0996	    2.8928	  -34.2365	
  -70.0000	-2.0088E-9	-2.0360E-9	-1.9500E-9	-2.2790E-9	-1.7700E-9	-7.635543E-9	-7.718480E-9	-7.660699E-9	-7.635247E-9	-7.527747E-9	  -20.0059	    9.1378	    2.8918	  -34.2137	
  -80.0000	-2.3845E-9	-2.6970E-9	-2.5480E-9	-2.2640E-9	-2.0290E-9	-7.859776E-9	-7.900266E-9	-7.843933E-9	-7.725576E-9	-7.969330E-9	  -20.0059	    9.1378	    2.8988	  -34.1895	
  -90.0000	-2.5785E-9	-2.6180E-9	-2.3020E-9	-2.7000E-9	-2.6940E-9	-8.127347E-9	-8.198580E-9	-8.000433E-9	-8.213866E-9	-8.096508E-9	  -20.0033	    9.1821	    2.8827	  -34.2157	
 -100.0000	-2.9560E-9	-3.2860E-9	-3.1440E-9	-2.7030E-9	-2.6910E-9	-8.348438E-9	-8.335265E-9	-8.545793E-9	-8.364447E-9	-8.148249E-9	  -20.0059	    9.1821	    2.8836	  -34.2123	
 -110.0000	-3.5772E-9	-3.5880E-9	-3.5710E-9	-3.8040E-9	-3.3460E-9	-8.901311E-9	-8.983422E-9	-8.889765E-9	-8.806616E-9	-8.925441E-9	  -20.0033	    9.1679	    2.8767	  -34.2464	
 -120.0000	 0.0000E+0	 0.0000E+0	 0.0000E+0	 0.0000E+0	 0.0000E+0	0.000000E+0	0.000000E+0	0.000000E+0	0.000000E+0	0.000000E+0	    0.0000	    0.0000	    0.0000	    0.0000	
