GCD Test
Bias: 5000.000000
CV_34331_042_2-S_HM_XX_DIODEHALFPSTOP_GRConnected
Date/Time: 9/9/2021 4:34:35 PM
Sensor Name: DIODEHALFPSTOP
Type: P
Annealing Status: Not Irradiated and Not Annealed
Environment: -20C
Tester: Andrew Kent

Time Delay per Ramp Step (s): 0.500

CV Time Delay per Measurement (s) :0.500

AC Voltage (V): 0.500

Current Number of measurements per voltage: 1.000

IV Time Delay per Measurement (s) :0.000


BiasVoltage	LCR_Cp_freqNaN	LCR_Rp_freqNaN	Temperature	Air_Temp	Humidity	Dewpoint	
   -5.0000	1.667E-11	1.336E+8	   20.2252	   19.9122	    8.9114	  -14.0029	
  -10.0000	1.374E-11	2.228E+8	   20.2252	   19.9122	    8.9114	  -14.0029	
  -15.0000	1.227E-11	3.051E+8	   20.3024	   19.9311	    8.7774	  -14.1733	
  -20.0000	1.135E-11	3.883E+8	   20.2690	   19.9294	    8.5629	  -14.4751	
  -25.0000	1.071E-11	4.724E+8	   20.2690	   19.9294	    8.5629	  -14.4751	
  -30.0000	1.027E-11	5.581E+8	   20.0579	   19.9259	    8.3824	  -14.7362	
  -35.0000	9.864E-12	6.340E+8	   19.9524	   19.9230	    8.3182	  -14.8315	
  -40.0000	9.522E-12	7.023E+8	   19.8623	   19.9240	    8.2638	  -14.9101	
  -45.0000	9.225E-12	7.588E+8	   19.7928	   19.9215	    8.2214	  -14.9741	
  -50.0000	8.974E-12	7.990E+8	   19.7645	   19.9176	    8.1765	  -15.0431	
  -55.0000	8.752E-12	8.539E+8	   19.7774	   19.9196	    8.1325	  -15.1067	
  -60.0000	8.551E-12	8.893E+8	   19.8314	   19.9224	    8.1075	  -15.1418	
  -65.0000	8.381E-12	9.325E+8	   19.9292	   19.9188	    8.0806	  -15.1845	
  -70.0000	8.232E-12	9.633E+8	   20.0373	   19.9247	    8.0503	  -15.2255	
  -75.0000	8.091E-12	9.915E+8	   20.1686	   19.9376	    8.0180	  -15.2643	
  -80.0000	7.968E-12	1.053E+9	   20.2716	   19.9421	    7.9930	  -15.2985	
  -85.0000	7.853E-12	1.078E+9	   20.3539	   19.9558	    7.9810	  -15.3065	
  -90.0000	7.751E-12	1.103E+9	   20.3771	   19.9523	    7.9526	  -15.3521	
  -95.0000	7.655E-12	1.147E+9	   20.3539	   19.9542	    7.9349	  -15.3775	
 -100.0000	7.566E-12	1.162E+9	   20.2921	   19.9622	    7.9105	  -15.4085	
 -105.0000	7.478E-12	1.193E+9	   20.2124	   19.9549	    7.8944	  -15.4386	
 -110.0000	7.400E-12	1.217E+9	   20.1068	   19.9520	    7.8760	  -15.4687	
 -115.0000	7.329E-12	1.270E+9	   20.0090	   19.9383	    7.8700	  -15.4881	
 -120.0000	7.259E-12	1.307E+9	   19.9086	   19.9350	    7.8479	  -15.5245	
 -125.0000	7.197E-12	1.317E+9	   19.8443	   19.9346	    7.8362	  -15.5427	
 -130.0000	7.138E-12	1.314E+9	   19.8005	   19.9324	    7.8267	  -15.5589	
 -135.0000	7.081E-12	1.328E+9	   19.8134	   19.9284	    7.8197	  -15.5725	
 -140.0000	7.025E-12	1.399E+9	   19.8134	   19.9284	    7.8197	  -15.5725	
 -145.0000	6.978E-12	1.387E+9	   20.0064	   19.9262	    7.8166	  -15.5790	
 -150.0000	6.927E-12	1.452E+9	   20.1145	   19.9335	    7.8106	  -15.5829	
 -155.0000	6.882E-12	1.443E+9	   20.2304	   19.9387	    7.8033	  -15.5902	
 -160.0000	6.837E-12	1.453E+9	   20.3179	   19.9438	    7.8008	  -15.5903	
 -165.0000	6.794E-12	1.455E+9	   20.3642	   19.9473	    7.8020	  -15.5857	
 -170.0000	6.757E-12	1.488E+9	   20.3616	   19.9471	    7.7929	  -15.6000	
 -175.0000	6.716E-12	1.532E+9	   20.3127	   19.9464	    7.7875	  -15.6088	
 -180.0000	6.678E-12	1.536E+9	   20.2381	   19.9475	    7.7808	  -15.6183	
 -185.0000	6.642E-12	1.553E+9	   20.1248	   19.9328	    7.7853	  -15.6224	
 -190.0000	6.610E-12	1.577E+9	   20.0270	   19.9313	    7.7739	  -15.6411	
 -195.0000	6.574E-12	1.617E+9	   19.9292	   19.9331	    7.7707	  -15.6446	
 -200.0000	6.546E-12	1.646E+9	   19.8597	   19.9159	    7.7758	  -15.6496	
 -205.0000	6.509E-12	1.619E+9	   19.8237	   19.9223	    7.7726	  -15.6497	
 -210.0000	6.484E-12	1.638E+9	   19.8237	   19.9174	    7.7783	  -15.6446	
 -215.0000	6.452E-12	1.592E+9	   19.8906	   19.9199	    7.7786	  -15.6422	
 -220.0000	6.420E-12	1.642E+9	   19.9781	   19.9262	    7.7815	  -15.6331	
 -225.0000	6.394E-12	1.688E+9	   20.0682	   19.9308	    7.7783	  -15.6346	
 -230.0000	6.366E-12	1.660E+9	   20.1737	   19.9305	    7.7862	  -15.6226	
 -235.0000	6.337E-12	1.672E+9	   20.2664	   19.9305	    7.7812	  -15.6304	
 -240.0000	6.314E-12	1.716E+9	   20.2947	   19.9360	    7.7878	  -15.6161	
 -245.0000	6.285E-12	1.749E+9	   20.2896	   19.9340	    7.7859	  -15.6205	
 -250.0000	6.259E-12	1.692E+9	   20.2458	   19.9331	    7.7837	  -15.6246	
 -255.0000	6.240E-12	1.728E+9	   20.1712	   19.9297	    7.7764	  -15.6384	
 -260.0000	6.215E-12	1.765E+9	   20.0734	   19.9212	    7.7691	  -15.6559	
 -265.0000	6.199E-12	1.796E+9	   19.9807	   19.9271	    7.7732	  -15.6451	
 -270.0000	6.184E-12	1.759E+9	   19.8880	   19.9126	    7.7688	  -15.6628	
 -275.0000	6.169E-12	1.810E+9	   19.7877	   19.9134	    7.7634	  -15.6705	
 -280.0000	6.164E-12	1.776E+9	   19.7542	   19.9079	    7.7723	  -15.6609	
 -285.0000	6.155E-12	1.753E+9	   19.7568	   19.9079	    7.7688	  -15.6609	
 -290.0000	6.151E-12	1.744E+9	   19.8108	   19.9058	    7.7723	  -15.6625	
 -295.0000	6.148E-12	1.763E+9	   19.9472	   19.9100	    7.7770	  -15.6520	
 -300.0000	6.150E-12	1.759E+9	   20.1377	   19.9100	    7.7770	  -15.6520	
 -305.0000	6.145E-12	1.758E+9	   20.2896	   19.9278	    7.7849	  -15.6266	
 -310.0000	6.140E-12	1.796E+9	   20.3977	   19.9339	    7.7758	  -15.6362	
 -315.0000	6.137E-12	1.777E+9	   20.4466	   19.9461	    7.7761	  -15.6266	
 -320.0000	6.140E-12	1.766E+9	   20.4337	   19.9414	    7.7780	  -15.6272	
 -325.0000	6.137E-12	1.749E+9	   20.3745	   19.9426	    7.7634	  -15.6488	
 -330.0000	6.137E-12	1.770E+9	   20.2638	   19.9343	    7.7672	  -15.6491	
 -335.0000	6.135E-12	1.764E+9	   20.2638	   19.9343	    7.7672	  -15.6491	
 -340.0000	6.133E-12	1.821E+9	   20.1017	   19.9343	    7.7634	  -15.6550	
 -345.0000	6.134E-12	1.869E+9	   20.0039	   19.9271	    7.7464	  -15.6868	
 -350.0000	6.134E-12	1.801E+9	   19.8417	   19.9085	    7.7410	  -15.7090	
 -355.0000	6.130E-12	1.809E+9	   19.8263	   19.9089	    7.7454	  -15.7018	
 -360.0000	6.130E-12	1.789E+9	   19.8597	   19.9073	    7.7514	  -15.6937	
 -365.0000	6.129E-12	1.858E+9	   19.9730	   19.9073	    7.7486	  -15.6981	
 -370.0000	6.134E-12	1.814E+9	   20.0914	   19.9181	    7.7555	  -15.6793	
 -375.0000	6.128E-12	1.767E+9	   20.2432	   19.9181	    7.7663	  -15.6626	
 -380.0000	6.132E-12	1.748E+9	   20.3694	   19.9241	    7.7530	  -15.6787	
 -385.0000	6.131E-12	1.837E+9	   20.4234	   19.9340	    7.7492	  -15.6772	
 -390.0000	6.131E-12	1.827E+9	   20.4234	   19.9340	    7.7492	  -15.6772	
 -395.0000	6.130E-12	1.789E+9	   20.3771	   19.9298	    7.7473	  -15.6833	
 -400.0000	6.127E-12	1.754E+9	   20.1943	   19.9261	    7.7356	  -15.7042	
 -410.0000	6.130E-12	1.930E+9	   20.0399	   19.9161	    7.7337	  -15.7146	
 -420.0000	6.125E-12	1.795E+9	   19.9421	   19.9129	    7.7315	  -15.7204	
 -430.0000	6.125E-12	1.797E+9	   19.8314	   19.9053	    7.7144	  -15.7526	
 -440.0000	6.124E-12	1.786E+9	   19.7902	   19.8995	    7.7268	  -15.7377	
 -450.0000	6.124E-12	1.860E+9	   19.7954	   19.8951	    7.7271	  -15.7405	
 -460.0000	6.123E-12	1.823E+9	   19.8546	   19.8983	    7.7233	  -15.7440	
 -470.0000	6.126E-12	1.784E+9	   19.9601	   19.9045	    7.7296	  -15.7296	
 -480.0000	6.124E-12	1.810E+9	   20.0939	   19.9008	    7.7347	  -15.7245	
 -490.0000	6.121E-12	1.751E+9	   20.2124	   19.9164	    7.7302	  -15.7197	
 -500.0000	6.124E-12	1.778E+9	   20.3179	   19.9201	    7.7331	  -15.7126	
 -510.0000	6.125E-12	1.772E+9	   20.3822	   19.9201	    7.7328	  -15.7131	
 -520.0000	6.127E-12	1.807E+9	   20.3822	   19.9277	    7.7312	  -15.7099	
 -530.0000	6.123E-12	1.800E+9	   20.3385	   19.9268	    7.7268	  -15.7174	
 -540.0000	6.121E-12	1.728E+9	   20.2587	   19.9314	    7.7258	  -15.7155	
 -550.0000	6.125E-12	1.881E+9	   20.1480	   19.9185	    7.7198	  -15.7344	
 -560.0000	6.122E-12	1.803E+9	   20.0245	   19.9076	    7.7144	  -15.7508	
 -570.0000	6.123E-12	1.836E+9	   19.9112	   19.9073	    7.7125	  -15.7541	
 -580.0000	6.124E-12	1.758E+9	   19.8417	   19.8964	    7.7179	  -15.7538	
 -590.0000	6.121E-12	1.791E+9	   19.8160	   19.8945	    7.7138	  -15.7616	
 -600.0000	6.123E-12	1.786E+9	   19.8443	   19.8945	    7.7116	  -15.7650	
