GCD Test
Bias: 5000.000000
CV_34341_012_PSS_HM_XX_DIODE_Irradiated
Date/Time: 9/6/2021 5:44:32 PM
Sensor Name: DIODE
Type: P
Annealing Status: Irradiated and Annealed at 60C for 80 min
Environment: -20C
Tester: Andrew Kent

Time Delay per Ramp Step (s): 1.000

CV Time Delay per Measurement (s) :0.500

AC Voltage (V): 0.500

Current Number of measurements per voltage: 4.000

IV Time Delay per Measurement (s) :0.000


BiasVoltage	LCR_Cp_freq1000.0	LCR_Cp_freq10000.0	LCR_Rp_freq1000.0	LCR_Rp_freq10000.0	Temperature	Air_Temp	Humidity	Dewpoint	
  -10.0000	9.737E-11	2.193E-11	1.136E+6	6.666E+5	  -19.5556	    8.3556	    9.8112	  -21.6922	
  -20.0000	9.672E-11	2.216E-11	1.338E+6	7.070E+5	  -19.6014	    8.3556	    9.8001	  -21.7051	
  -30.0000	9.391E-11	2.225E-11	1.471E+6	7.414E+5	  -19.6294	    8.4007	    9.8020	  -21.6680	
  -40.0000	9.192E-11	2.240E-11	1.570E+6	7.631E+5	  -19.6167	    8.3721	    9.8068	  -21.6846	
  -50.0000	8.972E-11	2.251E-11	1.663E+6	7.888E+5	  -19.6574	    8.3790	    9.8134	  -21.6716	
  -60.0000	8.767E-11	2.259E-11	1.745E+6	8.068E+5	  -19.6675	    8.3714	    9.7957	  -21.6980	
  -70.0000	8.664E-11	2.264E-11	1.805E+6	8.238E+5	  -19.6930	    8.3748	    9.7856	  -21.7071	
  -80.0000	8.525E-11	2.269E-11	1.862E+6	8.365E+5	  -19.7286	    8.3812	    9.7815	  -21.7070	
  -90.0000	8.430E-11	2.272E-11	1.908E+6	8.499E+5	  -19.7566	    8.3401	    9.7770	  -21.7438	
 -100.0000	8.342E-11	2.275E-11	1.949E+6	8.643E+5	  -19.7845	    8.3443	    9.7625	  -21.7575	
 -110.0000	8.223E-11	2.276E-11	1.991E+6	8.791E+5	  -19.7998	    8.3900	    9.7476	  -21.7396	
 -120.0000	8.168E-11	2.281E-11	2.022E+6	8.877E+5	  -19.7718	    8.3494	    9.7438	  -21.7753	
 -130.0000	8.084E-11	2.282E-11	2.054E+6	8.974E+5	  -19.7718	    8.3051	    9.7287	  -21.8272	
 -140.0000	8.043E-11	2.284E-11	2.080E+6	9.041E+5	  -19.7947	    8.3023	    9.7258	  -21.8326	
 -150.0000	8.018E-11	2.284E-11	2.101E+6	9.148E+5	  -19.7617	    8.3241	    9.7015	  -21.8443	
 -160.0000	7.950E-11	2.285E-11	2.125E+6	9.222E+5	  -19.8431	    8.2874	    9.6910	  -21.8848	
 -170.0000	7.872E-11	2.282E-11	2.150E+6	9.390E+5	  -19.8710	    8.2694	    9.6717	  -21.9213	
 -180.0000	7.785E-11	2.281E-11	2.176E+6	9.475E+5	  -19.9168	    8.2992	    9.6581	  -21.9143	
 -190.0000	7.740E-11	2.281E-11	2.197E+6	9.580E+5	  -19.9295	    8.3116	    9.6667	  -21.8947	
 -200.0000	7.687E-11	2.279E-11	2.216E+6	9.698E+5	  -19.9372	    8.2959	    9.6664	  -21.9072	
 -210.0000	7.648E-11	2.279E-11	2.232E+6	9.784E+5	  -19.9779	    8.2911	    9.6556	  -21.9235	
 -220.0000	7.572E-11	2.277E-11	2.260E+6	9.890E+5	  -19.9652	    8.2703	    9.6433	  -21.9540	
 -230.0000	7.536E-11	2.278E-11	2.277E+6	9.977E+5	  -19.9931	    8.2311	    9.6509	  -21.9753	
 -240.0000	7.541E-11	2.280E-11	2.288E+6	1.002E+6	  -19.9906	    8.2368	    9.6553	  -21.9658	
 -250.0000	7.532E-11	2.278E-11	2.299E+6	1.014E+6	  -20.0109	    8.1762	    9.6373	  -22.0336	
 -260.0000	7.434E-11	2.278E-11	2.327E+6	1.025E+6	  -19.9931	    8.1911	    9.6414	  -22.0173	
 -270.0000	7.400E-11	2.277E-11	2.344E+6	1.034E+6	  -20.0415	    8.2133	    9.6303	  -22.0132	
 -280.0000	7.355E-11	2.275E-11	2.364E+6	1.045E+6	  -20.0694	    8.2102	    9.6278	  -22.0185	
 -290.0000	7.282E-11	2.277E-11	2.386E+6	1.056E+6	  -20.0516	    8.2155	    9.6123	  -22.0328	
 -300.0000	7.275E-11	2.277E-11	2.401E+6	1.060E+6	  -20.0593	    8.2032	    9.6097	  -22.0452	
 -310.0000	7.217E-11	2.277E-11	2.422E+6	1.072E+6	  -20.0593	    8.2055	    9.6072	  -22.0464	
 -320.0000	7.197E-11	2.278E-11	2.438E+6	1.080E+6	  -20.0771	    8.2198	    9.5904	  -22.0552	
 -330.0000	7.154E-11	2.280E-11	2.454E+6	1.085E+6	  -20.0898	    8.1747	    9.5993	  -22.0794	
 -340.0000	7.141E-11	2.278E-11	2.470E+6	1.097E+6	  -20.1356	    8.1636	    9.5876	  -22.1018	
 -350.0000	7.062E-11	2.279E-11	2.493E+6	1.108E+6	  -20.1254	    8.1607	    9.5718	  -22.1227	
 -360.0000	7.078E-11	2.280E-11	2.500E+6	1.113E+6	  -20.1152	    8.1733	    9.5563	  -22.1314	
 -370.0000	7.027E-11	2.282E-11	2.523E+6	1.114E+6	  -20.1508	    8.1914	    9.5446	  -22.1313	
 -380.0000	7.008E-11	2.282E-11	2.536E+6	1.123E+6	  -20.1381	    8.1909	    9.5278	  -22.1516	
 -390.0000	6.931E-11	2.281E-11	2.557E+6	1.131E+6	  -20.1432	    8.1816	    9.5101	  -22.1798	
 -400.0000	6.920E-11	2.284E-11	2.566E+6	1.137E+6	  -20.1356	    8.1165	    9.4978	  -22.2446	
 -410.0000	6.904E-11	2.284E-11	2.578E+6	1.140E+6	  -20.1356	    8.1394	    9.4880	  -22.2386	
 -420.0000	6.886E-11	2.285E-11	2.594E+6	1.147E+6	  -20.1483	    8.1394	    9.4763	  -22.2526	
 -430.0000	6.862E-11	2.285E-11	2.602E+6	1.151E+6	  -20.1330	    8.1425	    9.4598	  -22.2552	
 -440.0000	6.826E-11	2.285E-11	2.615E+6	1.159E+6	  -20.1000	    8.1133	    9.4288	  -22.3294	
 -450.0000	6.826E-11	2.285E-11	2.626E+6	1.161E+6	  -20.1127	    8.0843	    9.4225	  -22.3593	
 -460.0000	6.792E-11	2.285E-11	2.640E+6	1.170E+6	  -20.1483	    8.1207	    9.4102	  -22.3462	
 -470.0000	6.768E-11	2.285E-11	2.650E+6	1.171E+6	  -20.1457	    8.0883	    9.3836	  -22.4030	
 -480.0000	6.772E-11	2.285E-11	2.657E+6	1.175E+6	  -20.1127	    8.0978	    9.3732	  -22.4082	
 -490.0000	6.727E-11	2.287E-11	2.668E+6	1.179E+6	  -20.1305	    8.1015	    9.3552	  -22.4272	
 -500.0000	6.729E-11	2.288E-11	2.674E+6	1.176E+6	  -20.1000	    8.1028	    9.3182	  -22.4709	
 -510.0000	6.747E-11	2.286E-11	2.676E+6	1.183E+6	  -20.1178	    8.0489	    9.3125	  -22.5192	
 -520.0000	6.636E-11	2.282E-11	2.708E+6	1.207E+6	  -20.1381	    8.0489	    9.3077	  -22.5249	
 -530.0000	6.550E-11	2.281E-11	2.732E+6	1.222E+6	  -20.1534	    8.0291	    9.3178	  -22.5512	
 -540.0000	6.492E-11	2.281E-11	2.746E+6	1.229E+6	  -20.1559	    8.0568	    9.3618	  -22.4534	
 -550.0000	6.494E-11	2.280E-11	2.754E+6	1.228E+6	  -20.1585	    8.0588	    9.4010	  -22.4047	
 -560.0000	6.471E-11	2.281E-11	2.761E+6	1.229E+6	  -20.1610	    8.0605	    9.4545	  -22.3394	
 -570.0000	6.440E-11	2.281E-11	2.777E+6	1.237E+6	  -20.1712	    8.0412	    9.5294	  -22.2650	
 -580.0000	6.422E-11	2.281E-11	2.782E+6	1.241E+6	  -20.1559	    8.0178	    9.5566	  -22.2507	
 -590.0000	6.432E-11	2.281E-11	2.788E+6	1.241E+6	  -20.1585	    8.0080	    9.6037	  -22.2026	
 -600.0000	6.422E-11	2.281E-11	2.791E+6	1.248E+6	  -20.1636	    8.0219	    9.6528	  -22.1343	
 -610.0000	6.393E-11	2.280E-11	2.802E+6	1.254E+6	  -20.1534	    8.0266	    9.6825	  -22.0958	
 -620.0000	6.361E-11	2.280E-11	2.812E+6	1.253E+6	  -20.1585	    8.0227	    9.6983	  -22.0803	
 -630.0000	6.346E-11	2.280E-11	2.821E+6	1.257E+6	  -20.1356	    7.9988	    9.7366	  -22.0542	
 -640.0000	6.334E-11	2.281E-11	2.827E+6	1.257E+6	  -20.1534	    8.0085	    9.7378	  -22.0452	
 -650.0000	6.344E-11	2.281E-11	2.831E+6	1.260E+6	  -20.1534	    7.9886	    9.7521	  -22.0440	
 -660.0000	6.336E-11	2.280E-11	2.830E+6	1.259E+6	  -20.1457	    8.0059	    9.7590	  -22.0226	
 -670.0000	6.343E-11	2.282E-11	2.835E+6	1.257E+6	  -20.1152	    7.9818	    9.7717	  -22.0265	
 -680.0000	6.353E-11	2.283E-11	2.831E+6	1.259E+6	  -20.1000	    7.9801	    9.7713	  -22.0282	
 -690.0000	6.331E-11	2.279E-11	2.839E+6	1.265E+6	  -20.1101	    7.9741	    9.7698	  -22.0346	
 -700.0000	6.308E-11	2.280E-11	2.852E+6	1.269E+6	  -20.0974	    7.9290	    9.7568	  -22.0845	
 -710.0000	6.202E-11	2.135E-11	2.839E+6	1.274E+6	  -20.0847	    7.9430	    9.7559	  -22.0748	
 -720.0000	6.211E-11	2.135E-11	2.842E+6	1.273E+6	  -20.0644	    7.9577	    9.7467	  -22.0741	
 -730.0000	6.196E-11	2.134E-11	2.846E+6	1.278E+6	  -20.0618	    7.9801	    9.7492	  -22.0538	
 -740.0000	6.202E-11	2.135E-11	2.841E+6	1.277E+6	  -20.0491	    7.9442	    9.7372	  -22.0955	
 -750.0000	6.203E-11	2.135E-11	2.844E+6	1.280E+6	  -20.0440	    7.9084	    9.7366	  -22.1239	
 -760.0000	6.181E-11	2.134E-11	2.855E+6	1.277E+6	  -20.0389	    7.9354	    9.7331	  -22.1071	
 -770.0000	6.142E-11	2.134E-11	2.865E+6	1.280E+6	  -20.0542	    7.9106	    9.7125	  -22.1502	
 -780.0000	6.186E-11	2.134E-11	2.856E+6	1.281E+6	  -20.0516	    7.9251	    9.7128	  -22.1387	
 -790.0000	6.160E-11	2.134E-11	2.867E+6	1.287E+6	  -20.0415	    7.9300	    9.6926	  -22.1585	
 -800.0000	6.158E-11	2.134E-11	2.863E+6	1.283E+6	  -20.0364	    7.9356	    9.6856	  -22.1623	
 -810.0000	6.132E-11	2.133E-11	2.878E+6	1.288E+6	  -20.0160	    7.9007	    9.6787	  -22.1973	
 -820.0000	6.184E-11	2.136E-11	2.865E+6	1.284E+6	  -20.0033	    7.9264	    9.6812	  -22.1746	
 -830.0000	6.162E-11	2.135E-11	2.869E+6	1.281E+6	  -19.9779	    7.9280	    9.6682	  -22.1885	
 -840.0000	6.164E-11	2.134E-11	2.868E+6	1.286E+6	  -19.9728	    7.9121	    9.6600	  -22.2104	
 -850.0000	6.151E-11	2.120E-11	2.874E+6	1.269E+6	  -19.9830	    7.8976	    9.6578	  -22.2241	
 -860.0000	6.154E-11	2.120E-11	2.875E+6	1.267E+6	  -19.9397	    7.9068	    9.9911	  -21.8324	
 -870.0000	6.159E-11	2.120E-11	2.870E+6	1.264E+6	  -19.9346	    7.8865	    9.6483	  -22.2438	
 -880.0000	6.157E-11	2.122E-11	2.876E+6	1.270E+6	  -19.9448	    7.8829	    9.6509	  -22.2436	
 -890.0000	6.164E-11	2.121E-11	2.872E+6	1.267E+6	  -19.9575	    7.8691	    9.6528	  -22.2521	
 -900.0000	6.183E-11	2.121E-11	2.875E+6	1.264E+6	  -19.9270	    7.8611	    9.6496	  -22.2619	
 -910.0000	6.176E-11	2.120E-11	2.877E+6	1.266E+6	  -19.9397	    7.8742	    9.6401	  -22.2629	
 -920.0000	6.166E-11	2.121E-11	2.873E+6	1.265E+6	  -19.9321	    7.8554	    9.6366	  -22.2815	
 -930.0000	6.166E-11	2.121E-11	2.873E+6	1.265E+6	  -19.9321	    7.8759	    9.6256	  -22.2787	
 -940.0000	5.008E-11	2.121E-11	2.685E+6	1.268E+6	  -19.9270	    7.9160	    9.6297	  -22.2430	
 -950.0000	4.166E-11	2.156E-11	6.292E+6	1.437E+6	  -19.9448	    7.9075	   25.4981	  -10.6452	
 -960.0000	3.938E-11	2.119E-11	2.971E+6	1.472E+6	  -19.9473	    7.8776	   25.5142	  -10.6628	
 -970.0000	6.490E-11	2.293E-11	4.301E+6	1.446E+6	  -19.9066	    7.8557	   17.3245	  -15.4391	
 -980.0000	9.900E+37	2.298E-11	9.900E+37	1.497E+6	  -19.8405	    7.8555	   24.5028	  -11.1882	
 -990.0000	4.904E-11	2.338E-11	4.373E+6	1.360E+6	  -19.5785	    7.8530	   20.9668	  -13.1213	
-1000.0000	6.533E-11	2.448E-11	4.384E+6	1.463E+6	  -18.5735	    7.8743	   19.6331	  -13.9081	
