GCD Test
Bias: 5000.000000
CV_34341_012_PSS_HM_XX_DIODEHALFPSTOP_Irradiated
Date/Time: 9/8/2021 1:42:26 PM
Sensor Name: DIODEHALFPSTOP
Type: P
Annealing Status: Irradiated and Annealed at 60C for 80 min
Environment: -20C
Tester: Andrew Kent

Time Delay per Ramp Step (s): 1.000

CV Time Delay per Measurement (s) :0.500

AC Voltage (V): 0.500

Current Number of measurements per voltage: 4.000

IV Time Delay per Measurement (s) :0.000


BiasVoltage	LCR_Cp_freq1000.0	LCR_Cp_freq10000.0	LCR_Rp_freq1000.0	LCR_Rp_freq10000.0	Temperature	Air_Temp	Humidity	Dewpoint	
  -10.0000	1.890E-11	5.485E-12	5.424E+6	3.286E+6	  -13.8498	   10.4507	   14.0677	  -15.8383	
  -20.0000	1.817E-11	5.646E-12	7.484E+6	3.711E+6	  -13.8294	   10.4764	   14.0898	  -15.7989	
  -30.0000	1.705E-11	5.706E-12	9.080E+6	4.065E+6	  -13.8116	   10.4756	   14.1249	  -15.7696	
  -40.0000	1.602E-11	5.754E-12	1.052E+7	4.403E+6	  -13.7836	   10.4484	   14.2214	  -15.7098	
  -50.0000	1.515E-11	5.808E-12	1.191E+7	4.683E+6	  -13.7708	   10.5106	   14.2881	  -15.6037	
  -60.0000	1.439E-11	5.847E-12	1.333E+7	4.949E+6	  -13.7479	   10.5106	   14.2584	  -15.6287	
  -70.0000	1.376E-11	5.872E-12	1.475E+7	5.203E+6	  -13.7097	   10.4855	   14.3020	  -15.6121	
  -80.0000	1.325E-11	5.890E-12	1.616E+7	5.428E+6	  -13.6867	   10.4916	   14.3561	  -15.5619	
  -90.0000	1.283E-11	5.897E-12	1.747E+7	5.654E+6	  -13.6689	   10.5576	   14.3931	  -15.4780	
 -100.0000	1.249E-11	5.909E-12	1.871E+7	5.854E+6	  -13.6510	   10.5436	   14.4175	  -15.4689	
 -110.0000	1.215E-11	5.916E-12	1.993E+7	6.062E+6	  -13.6026	   10.5635	   14.4254	  -15.4463	
 -120.0000	1.190E-11	5.938E-12	2.117E+7	6.222E+6	  -13.5822	   10.4856	   14.4605	  -15.4796	
 -130.0000	1.167E-11	5.943E-12	2.223E+7	6.406E+6	  -13.5542	   10.4415	   14.5164	  -15.4685	
 -140.0000	1.144E-11	5.948E-12	2.328E+7	6.568E+6	  -13.4981	   10.4789	   14.7223	  -15.2689	
 -150.0000	1.124E-11	5.948E-12	2.431E+7	6.755E+6	  -13.4752	   10.4951	   14.7925	  -15.1985	
 -160.0000	1.104E-11	5.948E-12	2.525E+7	6.906E+6	  -13.4421	   10.5119	   14.7536	  -15.2168	
 -170.0000	1.089E-11	5.951E-12	2.600E+7	7.056E+6	  -13.3962	   10.5058	   14.6578	  -15.3002	
 -180.0000	1.075E-11	5.947E-12	2.635E+7	7.191E+6	  -13.3503	   10.5366	   14.6164	  -15.3096	
 -190.0000	1.063E-11	5.947E-12	2.689E+7	7.281E+6	  -13.3146	   10.5262	   14.7306	  -15.2241	
 -200.0000	1.052E-11	5.944E-12	2.750E+7	7.429E+6	  -13.2560	   10.5647	   14.7688	  -15.1619	
 -210.0000	1.044E-11	5.944E-12	2.824E+7	7.569E+6	  -13.2203	   10.5523	   14.7780	  -15.1643	
 -220.0000	1.034E-11	5.945E-12	2.890E+7	7.683E+6	  -13.1949	   10.5313	   14.8008	  -15.1626	
 -230.0000	1.025E-11	5.943E-12	2.963E+7	7.821E+6	  -13.1617	   10.5942	   14.8757	  -15.0511	
 -240.0000	1.017E-11	5.937E-12	3.045E+7	7.951E+6	  -13.0955	   10.5876	   14.9807	  -14.9714	
 -250.0000	1.006E-11	5.938E-12	3.148E+7	8.073E+6	  -13.0725	   10.5707	   15.0035	  -14.9667	
 -260.0000	9.965E-12	5.937E-12	3.283E+7	8.198E+6	  -13.0368	   10.5870	   15.0753	  -14.8959	
 -270.0000	9.836E-12	5.943E-12	3.390E+7	8.308E+6	  -12.9782	   10.5546	   15.1319	  -14.8767	
 -280.0000	1.198E-11	6.610E-12	2.619E+7	6.357E+6	  -12.9476	   10.5535	   15.1910	  -14.8304	
 -290.0000	1.155E-11	6.566E-12	2.813E+7	6.631E+6	  -12.9043	   10.5419	   15.2527	  -14.7907	
 -300.0000	1.124E-11	6.541E-12	3.026E+7	6.795E+6	  -12.8508	   10.5506	   15.3169	  -14.7329	
 -310.0000	1.097E-11	6.489E-12	3.140E+7	6.976E+6	  -12.8176	   10.5260	   15.2688	  -14.7908	
 -320.0000	1.076E-11	6.482E-12	3.248E+7	7.124E+6	  -12.7743	   10.5260	   15.1613	  -14.8763	
 -330.0000	1.065E-11	6.484E-12	3.433E+7	7.289E+6	  -12.7106	   10.5200	   15.1739	  -14.8710	
 -340.0000	1.052E-11	6.493E-12	3.607E+7	7.444E+6	  -12.6749	   10.5028	   15.2239	  -14.8451	
 -350.0000	1.037E-11	6.504E-12	3.815E+7	7.594E+6	  -12.6494	   10.5386	   15.2400	  -14.8034	
 -360.0000	1.018E-11	6.471E-12	3.962E+7	7.799E+6	  -12.6290	   10.5372	   15.2571	  -14.7910	
 -370.0000	1.002E-11	6.473E-12	4.102E+7	7.899E+6	  -12.5908	   10.5233	   15.1923	  -14.8537	
 -380.0000	9.958E-12	6.522E-12	4.247E+7	8.041E+6	  -12.5806	   10.5460	   15.2125	  -14.8193	
 -390.0000	9.777E-12	6.447E-12	4.441E+7	8.204E+6	  -12.5653	   10.4889	   15.1524	  -14.9133	
 -400.0000	9.672E-12	6.497E-12	4.564E+7	8.374E+6	  -12.5500	   10.5313	   15.2489	  -14.8022	
 -410.0000	9.576E-12	6.526E-12	4.774E+7	8.535E+6	  -12.5423	   10.5129	   15.1996	  -14.8563	
 -420.0000	9.477E-12	6.508E-12	4.892E+7	8.685E+6	  -12.5449	   10.5266	   15.1787	  -14.8619	
 -430.0000	9.368E-12	6.537E-12	5.101E+7	8.808E+6	  -12.5525	   10.5494	   15.2008	  -14.8258	
 -440.0000	9.261E-12	6.483E-12	5.325E+7	8.934E+6	  -12.5576	   10.5154	   15.1622	  -14.8840	
 -450.0000	9.151E-12	6.522E-12	5.641E+7	9.103E+6	  -12.5704	   10.5063	   15.1904	  -14.8690	
 -460.0000	9.102E-12	6.559E-12	5.750E+7	9.275E+6	  -12.6010	   10.5337	   15.1505	  -14.8786	
 -470.0000	9.069E-12	6.546E-12	5.926E+7	9.385E+6	  -12.6162	   10.5821	   15.1006	  -14.8796	
 -480.0000	8.931E-12	6.571E-12	6.126E+7	9.483E+6	  -12.6264	   10.6006	   15.1559	  -14.8204	
 -490.0000	8.837E-12	6.547E-12	6.443E+7	9.646E+6	  -12.6672	   10.5921	   15.0677	  -14.8979	
 -500.0000	8.822E-12	6.536E-12	6.701E+7	9.736E+6	  -12.6876	   10.5919	   14.9858	  -14.9639	
 -510.0000	8.654E-12	6.537E-12	6.833E+7	9.808E+6	  -12.7055	   10.5562	   14.9738	  -15.0023	
 -520.0000	8.640E-12	6.553E-12	7.029E+7	9.970E+6	  -12.7513	   10.5219	   15.0560	  -14.9638	
 -530.0000	8.551E-12	6.585E-12	7.265E+7	1.016E+7	  -12.7692	   10.4952	   15.0993	  -14.9506	
 -540.0000	8.510E-12	6.576E-12	7.658E+7	1.015E+7	  -12.7921	   10.5349	   15.0481	  -14.9597	
 -550.0000	8.498E-12	6.553E-12	7.214E+7	1.031E+7	  -12.8482	   10.5493	   15.0512	  -14.9456	
 -560.0000	8.365E-12	6.577E-12	8.016E+7	1.037E+7	  -12.8712	   10.5312	   15.0712	  -14.9442	
 -570.0000	8.342E-12	6.547E-12	8.083E+7	1.047E+7	  -12.8941	   10.5507	   15.0478	  -14.9472	
 -580.0000	8.344E-12	6.545E-12	8.453E+7	1.051E+7	  -12.9451	   10.5443	   15.0421	  -14.9570	
 -590.0000	8.337E-12	6.561E-12	8.739E+7	1.058E+7	  -12.9680	   10.5898	   15.1097	  -14.8660	
 -600.0000	8.300E-12	6.574E-12	9.094E+7	1.076E+7	  -12.9833	   10.6015	   15.1063	  -14.8593	
 -610.0000	8.152E-12	6.557E-12	9.124E+7	1.070E+7	  -13.0241	   10.6060	   15.2011	  -14.7799	
 -620.0000	8.125E-12	6.576E-12	9.272E+7	1.083E+7	  -13.0343	   10.6033	   15.2277	  -14.7610	
 -630.0000	8.149E-12	6.560E-12	8.996E+7	1.081E+7	  -13.0521	   10.5957	   15.2653	  -14.7372	
 -640.0000	8.145E-12	6.574E-12	1.064E+8	1.099E+7	  -13.0623	   10.6150	   15.2163	  -14.7606	
 -650.0000	8.107E-12	6.550E-12	9.986E+7	1.104E+7	  -13.0598	   10.6400	   15.2755	  -14.6935	
 -660.0000	8.046E-12	6.558E-12	1.005E+8	1.103E+7	  -13.0521	   10.5882	   15.3191	  -14.7007	
 -670.0000	8.004E-12	6.552E-12	1.043E+8	1.102E+7	  -13.0445	   10.6079	   15.5740	  -14.4847	
 -680.0000	7.956E-12	6.611E-12	1.161E+8	1.116E+7	  -13.0317	   10.6059	   15.6208	  -14.4498	
 -690.0000	8.017E-12	6.605E-12	1.143E+8	1.130E+7	  -13.0088	   10.6059	   15.5860	  -14.4769	
 -700.0000	7.960E-12	6.592E-12	1.101E+8	1.133E+7	  -12.9706	   10.5498	   15.5911	  -14.5184	
 -710.0000	7.941E-12	6.545E-12	1.128E+8	1.121E+7	  -12.9374	   10.5863	   15.7068	  -14.3991	
 -720.0000	7.929E-12	6.557E-12	1.174E+8	1.133E+7	  -12.9017	   10.5930	   15.7685	  -14.3460	
 -730.0000	7.901E-12	6.575E-12	1.202E+8	1.128E+7	  -12.8737	   10.6352	   15.8533	  -14.2467	
 -740.0000	7.932E-12	6.569E-12	1.205E+8	1.135E+7	  -12.7947	   10.6449	   15.9706	  -14.1490	
 -750.0000	7.890E-12	6.549E-12	1.204E+8	1.139E+7	  -12.7539	   10.6362	   16.0560	  -14.0912	
 -760.0000	7.904E-12	6.548E-12	1.244E+8	1.132E+7	  -12.7182	   10.5934	   16.0822	  -14.1061	
 -770.0000	7.870E-12	6.555E-12	1.232E+8	1.138E+7	  -12.6290	   10.5761	   16.1553	  -14.0649	
 -780.0000	7.840E-12	6.559E-12	1.259E+8	1.148E+7	  -12.5959	   10.6102	   16.1486	  -14.0422	
 -790.0000	7.809E-12	6.568E-12	1.248E+8	1.151E+7	  -12.5525	   10.6159	   16.1781	  -14.0154	
 -800.0000	7.805E-12	6.574E-12	1.232E+8	1.153E+7	  -12.4888	   10.5861	   16.2786	  -13.9640	
 -810.0000	7.774E-12	6.548E-12	1.327E+8	1.154E+7	  -12.4607	   10.6196	   16.3450	  -13.8872	
 -820.0000	7.808E-12	6.550E-12	1.302E+8	1.161E+7	  -12.4225	   10.6360	   16.3805	  -13.8474	
 -830.0000	7.826E-12	6.571E-12	1.284E+8	1.167E+7	  -12.3664	   10.6545	   16.3561	  -13.8506	
 -840.0000	7.809E-12	6.579E-12	1.340E+8	1.172E+7	  -12.3384	   10.6481	   16.3131	  -13.8879	
 -850.0000	7.734E-12	6.534E-12	1.301E+8	1.145E+7	  -12.3078	   10.6481	   16.3899	  -13.8305	
 -860.0000	7.759E-12	6.543E-12	1.405E+8	1.174E+7	  -12.2491	   10.6451	   16.6063	  -13.7465	
 -870.0000	7.774E-12	6.549E-12	1.363E+8	1.169E+7	  -12.2135	   10.5963	   16.5873	  -13.7265	
 -880.0000	7.737E-12	6.523E-12	1.352E+8	1.126E+7	  -12.1982	   10.6649	   16.5250	  -13.7166	
 -890.0000	7.757E-12	6.546E-12	1.403E+8	1.145E+7	  -12.1676	   10.6385	   16.5452	  -13.7232	
 -900.0000	7.744E-12	6.525E-12	1.379E+8	1.123E+7	  -12.1013	   10.6506	   16.5471	  -13.7119	
 -910.0000	7.733E-12	6.527E-12	1.350E+8	1.135E+7	  -12.0860	   10.6067	   16.5405	  -13.7526	
 -920.0000	7.703E-12	6.505E-12	1.355E+8	1.132E+7	  -12.0630	   10.6005	   16.5386	  -13.7590	
 -930.0000	7.761E-12	6.553E-12	1.362E+8	1.158E+7	  -12.0044	   10.6350	   16.5060	  -13.7550	
 -940.0000	7.700E-12	6.525E-12	1.356E+8	1.152E+7	  -11.9840	   10.6923	   16.5503	  -13.6757	
 -950.0000	7.728E-12	6.512E-12	1.329E+8	1.141E+7	  -11.9534	   10.6987	   16.6265	  -13.6142	
 -960.0000	7.733E-12	6.513E-12	1.361E+8	1.150E+7	  -11.9075	   10.5756	   16.8068	  -13.5826	
 -970.0000	7.754E-12	6.548E-12	1.396E+8	1.165E+7	  -11.8871	   10.5868	   16.7796	  -13.5933	
 -980.0000	7.680E-12	6.534E-12	1.361E+8	1.159E+7	  -11.8565	   10.5868	   16.8472	  -13.5441	
 -990.0000	7.693E-12	6.518E-12	1.423E+8	1.156E+7	  -11.8157	   10.6125	   16.9361	  -13.4587	
-1000.0000	7.703E-12	6.553E-12	1.356E+8	1.192E+7	  -11.7902	   10.6363	   16.9213	  -13.4500	
