GCD Test
Bias: 5000.000000
IV_38694_003_2-S_HM_XX_DIODEHALFPSTOP
Date/Time: 2/10/2022 4:17:26 PM
Sensor Name: DIODEHALFPSTOP
Type: P
Annealing Status: Not Irradiated
Environment: 20C
Tester: Andrew Kent

Time Delay per Ramp Step (s): 0.500

CV Time Delay per Measurement (s) :0.500

AC Voltage (V): 0.500

Current Number of measurements per voltage: 1.000

IV Time Delay per Measurement (s) :0.000


BiasVoltage	Total Current_Avg	Total Current_0	Bias Current_Avg	Bias Current_0	Temperature	Air_Temp	Humidity	Dewpoint	
  -10.0000	2.8900E-10	2.8900E-10	-7.905934E-11	-7.905934E-11	   19.9807	   21.3737	   23.6354	   -0.2206	
  -20.0000	3.1600E-10	3.1600E-10	-8.652738E-11	-8.652738E-11	   19.9781	   21.3745	   23.6471	   -0.2131	
  -30.0000	7.2000E-11	7.2000E-11	-8.905812E-11	-8.905812E-11	   19.9781	   21.3786	   23.6553	   -0.2049	
  -40.0000	5.1000E-11	5.1000E-11	-9.180395E-11	-9.180395E-11	   19.9833	   21.3850	   23.6629	   -0.1951	
  -50.0000	4.2000E-11	4.2000E-11	-9.497881E-11	-9.497881E-11	   19.9910	   21.3909	   23.6803	   -0.1801	
  -60.0000	-9.6000E-11	-9.6000E-11	-9.751075E-11	-9.751075E-11	   20.0064	   21.3909	   23.6793	   -0.1801	
  -70.0000	-1.2700E-10	-1.2700E-10	-1.021195E-10	-1.021195E-10	   20.0167	   21.3909	   23.6920	   -0.1807	
  -80.0000	-1.6200E-10	-1.6200E-10	-1.058772E-10	-1.058772E-10	   20.0245	   21.3965	   23.6935	   -0.1686	
  -90.0000	-2.3200E-10	-2.3200E-10	-1.121183E-10	-1.121183E-10	   20.0296	   21.3945	   23.6958	   -0.1693	
 -100.0000	-2.8200E-10	-2.8200E-10	-1.194607E-10	-1.194607E-10	   20.0296	   21.3969	   23.7015	   -0.1661	
 -110.0000	-2.9300E-10	-2.9300E-10	-1.251301E-10	-1.251301E-10	   20.0296	   21.4032	   23.7015	   -0.1574	
 -120.0000	-3.2700E-10	-3.2700E-10	-1.274961E-10	-1.274961E-10	   20.0245	   21.4031	   23.7062	   -0.1548	
 -130.0000	-3.7300E-10	-3.7300E-10	-1.289008E-10	-1.289008E-10	   20.0167	   21.4070	   23.7211	   -0.1429	
 -140.0000	-3.8100E-10	-3.8100E-10	-1.308235E-10	-1.308235E-10	   20.0039	   21.4088	   23.7147	   -0.1451	
 -150.0000	-3.6100E-10	-3.6100E-10	-1.315612E-10	-1.315612E-10	   19.9961	   21.4130	   23.7264	   -0.1348	
 -160.0000	-3.2700E-10	-3.2700E-10	-1.334549E-10	-1.334549E-10	   19.9884	   21.4058	   23.7226	   -0.1430	
 -170.0000	-4.2800E-10	-4.2800E-10	-1.371822E-10	-1.371822E-10	   19.9833	   21.4061	   23.7192	   -0.1448	
 -180.0000	-4.0300E-10	-4.0300E-10	-1.404525E-10	-1.404525E-10	   19.9781	   21.4113	   23.7359	   -0.1307	
 -190.0000	-4.0800E-10	-4.0800E-10	-1.462626E-10	-1.462626E-10	   19.9781	   21.4098	   23.7347	   -0.1327	
 -200.0000	-5.2300E-10	-5.2300E-10	-1.526066E-10	-1.526066E-10	   19.9833	   21.4101	   23.7391	   -0.1298	
 -210.0000	-4.7300E-10	-4.7300E-10	-1.592702E-10	-1.592702E-10	   19.9884	   21.4191	   23.7419	   -0.1206	
 -220.0000	-5.3200E-10	-5.3200E-10	-1.646897E-10	-1.646897E-10	   19.9987	   21.4103	   23.7359	   -0.1315	
 -230.0000	-5.2300E-10	-5.2300E-10	-1.690319E-10	-1.690319E-10	   20.0064	   21.4132	   23.7432	   -0.1249	
 -240.0000	-5.5000E-10	-5.5000E-10	-1.724961E-10	-1.724961E-10	   20.0193	   21.4129	   23.7524	   -0.1198	
 -250.0000	-5.5500E-10	-5.5500E-10	-1.758759E-10	-1.758759E-10	   20.0245	   21.4157	   23.7596	   -0.1132	
 -260.0000	-5.7700E-10	-5.7700E-10	-1.787548E-10	-1.787548E-10	   20.0296	   21.4196	   23.7546	   -0.1129	
 -270.0000	-6.0300E-10	-6.0300E-10	-1.807891E-10	-1.807891E-10	   20.0270	   21.4196	   23.7676	   -0.1129	
 -280.0000	-6.6600E-10	-6.6600E-10	-1.829814E-10	-1.829814E-10	   20.0219	   21.4159	   23.7774	   -0.1085	
 -290.0000	-6.9000E-10	-6.9000E-10	-1.848742E-10	-1.848742E-10	   20.0116	   21.4141	   23.7682	   -0.1044	
 -300.0000	-7.2000E-10	-7.2000E-10	-1.862504E-10	-1.862504E-10	   20.0039	   21.4151	   23.7691	   -0.1088	
 -310.0000	-6.8200E-10	-6.8200E-10	-1.880003E-10	-1.880003E-10	   19.9910	   21.4115	   23.7606	   -0.1113	
 -320.0000	-7.3600E-10	-7.3600E-10	-1.894360E-10	-1.894360E-10	   19.9910	   21.4158	   23.7606	   -0.1126	
 -330.0000	-8.2700E-10	-8.2700E-10	-1.907113E-10	-1.907113E-10	   19.9858	   21.4155	   23.7688	   -0.1081	
 -340.0000	-7.7000E-10	-7.7000E-10	-1.930181E-10	-1.930181E-10	   19.9781	   21.4134	   23.7698	   -0.1093	
 -350.0000	-7.3600E-10	-7.3600E-10	-1.947391E-10	-1.947391E-10	   19.9755	   21.4144	   23.7755	   -0.1052	
 -360.0000	-8.0900E-10	-8.0900E-10	-1.965001E-10	-1.965001E-10	   19.9755	   21.4160	   23.7774	   -0.1027	
 -370.0000	-7.9100E-10	-7.9100E-10	-1.977468E-10	-1.977468E-10	   19.9807	   21.4175	   23.7849	   -0.0971	
 -380.0000	-8.0000E-10	-8.0000E-10	-1.996364E-10	-1.996364E-10	   19.9910	   21.4197	   23.7786	   -0.0989	
 -390.0000	-8.0300E-10	-8.0300E-10	-2.009665E-10	-2.009665E-10	   20.0039	   21.4150	   23.7868	   -0.0981	
 -400.0000	-8.5400E-10	-8.5400E-10	-2.028544E-10	-2.028544E-10	   20.0142	   21.4215	   23.7925	   -0.0894	
 -420.0000	-1.1000E-9	-1.1000E-9	-2.059144E-10	-2.059144E-10	   20.0245	   21.4195	   23.7925	   -0.0910	
 -440.0000	-1.1250E-9	-1.1250E-9	-2.082467E-10	-2.082467E-10	   20.0296	   21.4187	   23.7929	   -0.0915	
 -460.0000	-1.2490E-9	-1.2490E-9	-2.113619E-10	-2.113619E-10	   20.0347	   21.4168	   23.8058	   -0.0857	
 -480.0000	-1.3120E-9	-1.3120E-9	-2.132085E-10	-2.132085E-10	   20.0347	   21.4185	   23.8008	   -0.0871	
 -500.0000	-1.3120E-9	-1.3120E-9	-2.147137E-10	-2.147137E-10	   20.0245	   21.4185	   23.8068	   -0.0871	
 -520.0000	-1.3900E-9	-1.3900E-9	-2.157790E-10	-2.157790E-10	   20.0245	   21.4195	   23.8068	   -0.0828	
 -540.0000	-1.4730E-9	-1.4730E-9	-2.181602E-10	-2.181602E-10	   20.0167	   21.4160	   23.7998	   -0.0898	
 -560.0000	-1.5120E-9	-1.5120E-9	-2.197693E-10	-2.197693E-10	   20.0064	   21.4147	   23.8052	   -0.0878	
 -580.0000	-1.7140E-9	-1.7140E-9	-2.214486E-10	-2.214486E-10	   19.9987	   21.4168	   23.7916	   -0.0939	
 -600.0000	-1.5740E-9	-1.5740E-9	-2.228574E-10	-2.228574E-10	   19.9858	   21.4168	   23.8020	   -0.0939	
 -620.0000	-1.6010E-9	-1.6010E-9	-2.247725E-10	-2.247725E-10	   19.9858	   21.4168	   23.8020	   -0.0879	
 -640.0000	-1.6490E-9	-1.6490E-9	-2.267279E-10	-2.267279E-10	   19.9833	   21.4133	   23.7951	   -0.0948	
 -660.0000	-1.7320E-9	-1.7320E-9	-2.290911E-10	-2.290911E-10	   19.9807	   21.4112	   23.8077	   -0.0892	
 -680.0000	-1.7740E-9	-1.7740E-9	-2.307127E-10	-2.307127E-10	   19.9833	   21.4088	   23.7872	   -0.1031	
 -700.0000	-1.8150E-9	-1.8150E-9	-2.327567E-10	-2.327567E-10	   19.9910	   21.4088	   23.7707	   -0.1031	
 -720.0000	-1.8220E-9	-1.8220E-9	-2.348451E-10	-2.348451E-10	   19.9910	   21.4107	   23.7707	   -0.1111	
 -740.0000	-1.8800E-9	-1.8800E-9	-2.366242E-10	-2.366242E-10	   20.0013	   21.4115	   23.7622	   -0.1153	
 -760.0000	-1.9290E-9	-1.9290E-9	-2.392612E-10	-2.392612E-10	   20.0116	   21.4201	   23.7540	   -0.1128	
 -780.0000	-1.9560E-9	-1.9560E-9	-2.416296E-10	-2.416296E-10	   20.0245	   21.4201	   23.7596	   -0.1128	
 -800.0000	-2.0370E-9	-2.0370E-9	-2.440945E-10	-2.440945E-10	   20.0245	   21.4130	   23.7596	   -0.1155	
 -820.0000	-2.0010E-9	-2.0010E-9	-2.462734E-10	-2.462734E-10	   20.0296	   21.4092	   23.7584	   -0.1194	
 -840.0000	-2.0520E-9	-2.0520E-9	-2.490779E-10	-2.490779E-10	   20.0322	   21.4137	   23.7713	   -0.1081	
 -860.0000	-2.0960E-9	-2.0960E-9	-2.519796E-10	-2.519796E-10	   20.0322	   21.4137	   23.7713	   -0.1081	
 -880.0000	-2.2040E-9	-2.2040E-9	-2.555169E-10	-2.555169E-10	   20.0296	   21.4139	   23.7891	   -0.0978	
 -900.0000	-2.1250E-9	-2.1250E-9	-2.595152E-10	-2.595152E-10	   20.0193	   21.4133	   23.7780	   -0.1046	
 -920.0000	-2.2080E-9	-2.2080E-9	-2.633199E-10	-2.633199E-10	   20.0116	   21.4133	   23.7872	   -0.1046	
 -940.0000	-2.2440E-9	-2.2440E-9	-2.673573E-10	-2.673573E-10	   20.0116	   21.4098	   23.7872	   -0.1023	
 -960.0000	-2.2650E-9	-2.2650E-9	-2.727990E-10	-2.727990E-10	   19.9987	   21.4142	   23.7849	   -0.0999	
 -980.0000	-2.4440E-9	-2.4440E-9	-2.785945E-10	-2.785945E-10	   19.9910	   21.4190	   23.7840	   -0.0964	
-1000.0000	-2.3610E-9	-2.3610E-9	-2.848583E-10	-2.848583E-10	   19.9807	   21.4190	   23.7786	   -0.0964	
