GCD Test
Bias: 5000.000000
IV_38875_004_2-S_HM_XX_DIODE
Date/Time: 3/9/2022 12:24:03 PM
Sensor Name: 
Type: P
Annealing Status: Unirradiated
Environment: 20C
Tester: Andrew Kent

Time Delay per Ramp Step (s): 0.500

CV Time Delay per Measurement (s) :0.500

AC Voltage (V): 0.500

Current Number of measurements per voltage: 1.000

IV Time Delay per Measurement (s) :0.000


BiasVoltage	Total Current_Avg	Total Current_0	Bias Current_Avg	Bias Current_0	Temperature	Air_Temp	Humidity	Dewpoint	
  -10.0000	-1.0000E-12	-1.0000E-12	-1.903326E-10	-1.903326E-10	   20.0090	   21.9679	   18.8950	   -2.7677	
  -20.0000	-2.5600E-10	-2.5600E-10	-2.013450E-10	-2.013450E-10	   20.0064	   21.9694	   18.7948	   -2.8379	
  -30.0000	-1.6600E-10	-1.6600E-10	-2.240130E-10	-2.240130E-10	   20.0064	   21.9671	   18.7075	   -2.9024	
  -40.0000	-2.5800E-10	-2.5800E-10	-2.475346E-10	-2.475346E-10	   20.0039	   21.9700	   18.6284	   -2.9567	
  -50.0000	-3.5100E-10	-3.5100E-10	-2.599596E-10	-2.599596E-10	   20.0039	   21.9687	   18.5759	   -2.9957	
  -60.0000	-3.2300E-10	-3.2300E-10	-2.657819E-10	-2.657819E-10	   20.0039	   21.9653	   18.5190	   -3.0396	
  -70.0000	-3.1900E-10	-3.1900E-10	-2.697960E-10	-2.697960E-10	   20.0013	   21.9666	   18.4779	   -3.0684	
  -80.0000	-4.0200E-10	-4.0200E-10	-2.730978E-10	-2.730978E-10	   20.0039	   21.9628	   18.4488	   -3.0926	
  -90.0000	-4.4500E-10	-4.4500E-10	-2.760368E-10	-2.760368E-10	   20.0013	   21.9657	   18.4162	   -3.1139	
 -100.0000	-4.1700E-10	-4.1700E-10	-2.785540E-10	-2.785540E-10	   19.9987	   21.9614	   18.3963	   -3.1319	
 -110.0000	-4.4200E-10	-4.4200E-10	-2.811113E-10	-2.811113E-10	   19.9987	   21.9644	   18.3782	   -3.1426	
 -120.0000	-4.3800E-10	-4.3800E-10	-2.842459E-10	-2.842459E-10	   19.9987	   21.9600	   18.3583	   -3.1607	
 -130.0000	-5.2400E-10	-5.2400E-10	-2.873628E-10	-2.873628E-10	   19.9987	   21.9640	   18.3536	   -3.1609	
 -140.0000	-4.9200E-10	-4.9200E-10	-2.903528E-10	-2.903528E-10	   19.9987	   21.9588	   18.3390	   -3.1757	
 -150.0000	-5.1800E-10	-5.1800E-10	-2.935625E-10	-2.935625E-10	   19.9987	   21.9584	   18.3201	   -3.1900	
 -160.0000	-5.4600E-10	-5.4600E-10	-2.984528E-10	-2.984528E-10	   20.0013	   21.9584	   18.3150	   -3.1900	
 -170.0000	-6.8700E-10	-6.8700E-10	-3.047918E-10	-3.047918E-10	   20.0013	   21.9603	   18.3150	   -3.1921	
 -180.0000	-6.3500E-10	-6.3500E-10	-3.141433E-10	-3.141433E-10	   20.0039	   21.9621	   18.2935	   -3.2063	
 -190.0000	-6.2700E-10	-6.2700E-10	-3.259792E-10	-3.259792E-10	   20.0039	   21.9621	   18.2843	   -3.2063	
 -200.0000	-6.8400E-10	-6.8400E-10	-3.400589E-10	-3.400589E-10	   20.0039	   21.9621	   18.2894	   -3.2130	
 -210.0000	-6.9300E-10	-6.9300E-10	-3.545912E-10	-3.545912E-10	   20.0039	   21.9597	   18.2799	   -3.2113	
 -220.0000	-7.2100E-10	-7.2100E-10	-3.667589E-10	-3.667589E-10	   20.0013	   21.9602	   18.2676	   -3.2179	
 -230.0000	-7.8700E-10	-7.8700E-10	-3.759023E-10	-3.759023E-10	   20.0013	   21.9559	   18.2701	   -3.2304	
 -240.0000	-7.4900E-10	-7.4900E-10	-3.839077E-10	-3.839077E-10	   20.0013	   21.9581	   18.2713	   -3.2268	
 -250.0000	-7.6500E-10	-7.6500E-10	-3.900986E-10	-3.900986E-10	   20.0013	   21.9566	   18.2713	   -3.2271	
 -260.0000	-8.7600E-10	-8.7600E-10	-3.960636E-10	-3.960636E-10	   19.9987	   21.9553	   18.2577	   -3.2380	
 -270.0000	-8.7400E-10	-8.7400E-10	-4.016225E-10	-4.016225E-10	   19.9987	   21.9526	   18.2615	   -3.2375	
 -280.0000	-8.5200E-10	-8.5200E-10	-4.066624E-10	-4.066624E-10	   19.9961	   21.9537	   18.2631	   -3.2354	
 -290.0000	-8.8900E-10	-8.8900E-10	-4.114202E-10	-4.114202E-10	   19.9961	   21.9563	   18.2587	   -3.2366	
 -300.0000	-9.1600E-10	-9.1600E-10	-4.156336E-10	-4.156336E-10	   19.9961	   21.9574	   18.2628	   -3.2326	
 -310.0000	-9.3300E-10	-9.3300E-10	-4.198520E-10	-4.198520E-10	   19.9987	   21.9497	   18.2688	   -3.2346	
 -320.0000	-9.4400E-10	-9.4400E-10	-4.230519E-10	-4.230519E-10	   19.9987	   21.9515	   18.2707	   -3.2317	
 -330.0000	-9.7300E-10	-9.7300E-10	-4.270036E-10	-4.270036E-10	   19.9987	   21.9536	   18.2619	   -3.2365	
 -340.0000	-9.2700E-10	-9.2700E-10	-4.303310E-10	-4.303310E-10	   20.0013	   21.9564	   18.2600	   -3.2356	
 -350.0000	-1.0190E-9	-1.0190E-9	-4.333165E-10	-4.333165E-10	   19.9987	   21.9563	   18.2574	   -3.2375	
 -360.0000	-1.0420E-9	-1.0420E-9	-4.362951E-10	-4.362951E-10	   20.0013	   21.9496	   18.2625	   -3.2392	
 -370.0000	-1.1250E-9	-1.1250E-9	-4.393093E-10	-4.393093E-10	   20.0039	   21.9541	   18.2498	   -3.2449	
 -380.0000	-1.0260E-9	-1.0260E-9	-4.418862E-10	-4.418862E-10	   20.0039	   21.9541	   18.2559	   -3.2449	
 -390.0000	-1.0470E-9	-1.0470E-9	-4.448650E-10	-4.448650E-10	   20.0039	   21.9519	   18.2596	   -3.2422	
 -400.0000	-9.9700E-10	-9.9700E-10	-4.472839E-10	-4.472839E-10	   20.0039	   21.9514	   18.2612	   -3.2399	
 -420.0000	-1.1240E-9	-1.1240E-9	-4.514727E-10	-4.514727E-10	   20.0039	   21.9493	   18.2612	   -3.2404	
 -440.0000	-1.3390E-9	-1.3390E-9	-4.569605E-10	-4.569605E-10	   20.0013	   21.9512	   18.2726	   -3.2306	
 -460.0000	-1.4360E-9	-1.4360E-9	-4.614005E-10	-4.614005E-10	   19.9987	   21.9483	   18.2698	   -3.2350	
 -480.0000	-1.3910E-9	-1.3910E-9	-4.660589E-10	-4.660589E-10	   19.9987	   21.9483	   18.2761	   -3.2350	
 -500.0000	-1.4880E-9	-1.4880E-9	-4.701213E-10	-4.701213E-10	   19.9987	   21.9520	   18.2761	   -3.2273	
 -520.0000	-1.5200E-9	-1.5200E-9	-4.740633E-10	-4.740633E-10	   19.9987	   21.9452	   18.2808	   -3.2294	
 -540.0000	-1.5820E-9	-1.5820E-9	-4.777874E-10	-4.777874E-10	   19.9987	   21.9582	   18.2916	   -3.2110	
 -560.0000	-1.6540E-9	-1.6540E-9	-4.820828E-10	-4.820828E-10	   19.9987	   21.9582	   18.2865	   -3.2110	
 -580.0000	-1.7200E-9	-1.7200E-9	-4.859828E-10	-4.859828E-10	   19.9987	   21.9543	   18.2865	   -3.2179	
 -600.0000	-1.7220E-9	-1.7220E-9	-4.894078E-10	-4.894078E-10	   19.9961	   21.9494	   18.2878	   -3.2209	
 -620.0000	-1.7860E-9	-1.7860E-9	-4.931420E-10	-4.931420E-10	   19.9987	   21.9494	   18.2891	   -3.2209	
 -640.0000	-1.8340E-9	-1.8340E-9	-4.964477E-10	-4.964477E-10	   19.9987	   21.9509	   18.2891	   -3.2187	
 -660.0000	-1.8940E-9	-1.8940E-9	-4.997086E-10	-4.997086E-10	   19.9987	   21.9485	   18.2767	   -3.2297	
 -680.0000	-1.8980E-9	-1.8980E-9	-5.034491E-10	-5.034491E-10	   20.0013	   21.9485	   18.3004	   -3.2297	
 -700.0000	-1.9280E-9	-1.9280E-9	-5.072766E-10	-5.072766E-10	   20.0013	   21.9506	   18.3004	   -3.2107	
 -720.0000	-2.0210E-9	-2.0210E-9	-5.108352E-10	-5.108352E-10	   20.0013	   21.9490	   18.3014	   -3.2112	
 -740.0000	-2.1500E-9	-2.1500E-9	-5.153508E-10	-5.153508E-10	   20.0013	   21.9493	   18.3099	   -3.2047	
 -760.0000	-2.0210E-9	-2.0210E-9	-5.187474E-10	-5.187474E-10	   20.0039	   21.9493	   18.3140	   -3.2047	
 -780.0000	-2.0660E-9	-2.0660E-9	-5.231152E-10	-5.231152E-10	   20.0039	   21.9493	   18.3140	   -3.2017	
 -800.0000	-2.1460E-9	-2.1460E-9	-5.341795E-10	-5.341795E-10	   20.0039	   21.9477	   18.3030	   -3.2112	
 -820.0000	-2.9070E-9	-2.9070E-9	-1.177359E-9	-1.177359E-9	   20.0064	   21.9493	   18.3036	   -3.2094	
 -840.0000	-6.9620E-9	-6.9620E-9	-3.990263E-9	-3.990263E-9	   20.0064	   21.9493	   18.3036	   -3.2094	
 -860.0000	-1.5640E-8	-1.5640E-8	-1.161897E-8	-1.161897E-8	   20.0039	   21.9491	   18.3046	   -3.2088	
 -880.0000	-2.4810E-8	-2.4810E-8	-1.832774E-8	-1.832774E-8	   20.0013	   21.9463	   18.2951	   -3.2181	
 -900.0000	-3.7440E-8	-3.7440E-8	-2.269447E-8	-2.269447E-8	   20.0013	   21.9463	   18.2951	   -3.2181	
 -920.0000	-6.0100E-8	-6.0100E-8	-4.478607E-8	-4.478607E-8	   19.9987	   21.9458	   18.2903	   -3.2219	
 -940.0000	-9.9900E-8	-9.9900E-8	0.000000E+0	0.000000E+0	    0.0000	    0.0000	    0.0000	    0.0000	
