GCD Test
Bias: 5000.000000
IV_N4789_21_UR_DIODEQUARTER_GR_Irradiated_Annealed_60C_10min
Date/Time: 5/5/2022 4:05:43 PM
Sensor Name: 
Type: P
Annealing Status: Irradiated and Annealed at 60C for 10 Minutes
Environment: 0C
Tester: Andrew Kent

Time Delay per Ramp Step (s): 0.500

CV Time Delay per Measurement (s) :0.500

AC Voltage (V): 0.500

Current Number of measurements per voltage: 1.000

IV Time Delay per Measurement (s) :0.000


BiasVoltage	Total Current_Avg	Total Current_0	Bias Current_Avg	Bias Current_0	Temperature	Air_Temp	Humidity	Dewpoint	
  -10.0000	-3.3000E-6	-3.3000E-6	-1.671170E-6	-1.671170E-6	   -0.0102	   13.1928	   12.6325	  -14.9214	
  -20.0000	-5.2250E-6	-5.2250E-6	-2.275729E-6	-2.275729E-6	   -0.0102	   13.1897	   12.6325	  -14.9570	
  -30.0000	-6.6320E-6	-6.6320E-6	-2.701562E-6	-2.701562E-6	   -0.0051	   13.1894	   12.5253	  -15.0602	
  -40.0000	-7.7070E-6	-7.7070E-6	-3.043728E-6	-3.043728E-6	   -0.0051	   13.1894	   12.5253	  -15.0602	
  -50.0000	-8.6000E-6	-8.6000E-6	-3.356827E-6	-3.356827E-6	   -0.0077	   13.1848	   12.4058	  -15.1796	
  -60.0000	-9.3880E-6	-9.3880E-6	-3.639203E-6	-3.639203E-6	   -0.0000	   13.1910	   12.3128	  -15.2655	
  -70.0000	-1.0100E-5	-1.0100E-5	-3.883527E-6	-3.883527E-6	   -0.0000	   13.1910	   12.3128	  -15.2655	
  -80.0000	-1.0730E-5	-1.0730E-5	-4.121915E-6	-4.121915E-6	    0.0026	   13.1910	   12.2011	  -15.3752	
  -90.0000	-1.1330E-5	-1.1330E-5	-4.353929E-6	-4.353929E-6	   -0.0000	   13.2062	   12.1082	  -15.4553	
 -100.0000	-1.1920E-5	-1.1920E-5	-4.592538E-6	-4.592538E-6	   -0.0000	   13.2062	   12.1082	  -15.4553	
 -110.0000	-1.2460E-5	-1.2460E-5	-4.806606E-6	-4.806606E-6	   -0.0026	   13.1843	   12.0177	  -15.5627	
 -120.0000	-1.2980E-5	-1.2980E-5	-5.002306E-6	-5.002306E-6	   -0.0051	   13.1843	   11.9279	  -15.5627	
 -130.0000	-1.3420E-5	-1.3420E-5	-5.191810E-6	-5.191810E-6	   -0.0051	   13.1993	   11.9279	  -15.6410	
 -140.0000	-1.3940E-5	-1.3940E-5	-5.399159E-6	-5.399159E-6	   -0.0026	   13.2158	   11.8792	  -15.6772	
 -150.0000	-1.4390E-5	-1.4390E-5	-5.584862E-6	-5.584862E-6	    0.0102	   13.2158	   11.8055	  -15.6772	
 -160.0000	-1.4820E-5	-1.4820E-5	-5.790625E-6	-5.790625E-6	    0.0102	   13.2287	   11.8055	  -15.7418	
 -170.0000	-1.5220E-5	-1.5220E-5	-5.953173E-6	-5.953173E-6	    0.0051	   13.2344	   11.7641	  -15.7795	
 -180.0000	-1.5650E-5	-1.5650E-5	-6.137092E-6	-6.137092E-6	    0.0051	   13.2344	   11.7641	  -15.7795	
 -190.0000	-1.6050E-5	-1.6050E-5	-6.313553E-6	-6.313553E-6	    0.0051	   13.2276	   11.7030	  -15.8473	
 -200.0000	-1.6430E-5	-1.6430E-5	-6.492034E-6	-6.492034E-6	    0.0026	   13.2276	   11.6559	  -15.8956	
 -220.0000	-1.7200E-5	-1.7200E-5	-6.818415E-6	-6.818415E-6	    0.0026	   13.2276	   11.6559	  -15.8956	
 -240.0000	-1.7930E-5	-1.7930E-5	-7.141969E-6	-7.141969E-6	    0.0026	   13.2247	   11.5908	  -15.9650	
 -260.0000	-1.8600E-5	-1.8600E-5	-7.450504E-6	-7.450504E-6	    0.0026	   13.2263	   11.5670	  -15.9883	
 -280.0000	-1.9290E-5	-1.9290E-5	-7.723134E-6	-7.723134E-6	    0.0026	   13.2263	   11.5670	  -15.9883	
 -300.0000	-1.9910E-5	-1.9910E-5	-7.983556E-6	-7.983556E-6	   -0.0000	   13.2132	   11.5234	  -16.0438	
 -320.0000	-2.0470E-5	-2.0470E-5	-8.242405E-6	-8.242405E-6	   -0.0026	   13.2237	   11.5003	  -16.0596	
 -340.0000	-2.1050E-5	-2.1050E-5	-8.471293E-6	-8.471293E-6	   -0.0026	   13.2237	   11.5003	  -16.0596	
 -360.0000	-2.1540E-5	-2.1540E-5	-8.653053E-6	-8.653053E-6	    0.0026	   13.2213	   11.4557	  -16.1080	
 -380.0000	-2.1990E-5	-2.1990E-5	-8.846811E-6	-8.846811E-6	    0.0026	   13.2079	   11.4390	  -16.1360	
 -400.0000	-2.2510E-5	-2.2510E-5	-9.051628E-6	-9.051628E-6	    0.0026	   13.2079	   11.4390	  -16.1360	
 -440.0000	-2.3320E-5	-2.3320E-5	-9.348274E-6	-9.348274E-6	   -0.0000	   13.2107	   11.3928	  -16.1821	
 -480.0000	-2.4150E-5	-2.4150E-5	-9.653609E-6	-9.653609E-6	   -0.0026	   13.2046	   11.3719	  -16.2088	
 -520.0000	-2.4970E-5	-2.4970E-5	-9.936496E-6	-9.936496E-6	   -0.0026	   13.2046	   11.3719	  -16.2088	
 -560.0000	-2.5780E-5	-2.5780E-5	-1.025930E-5	-1.025930E-5	   -0.0000	   13.2018	   11.3387	  -16.2459	
 -600.0000	-2.6610E-5	-2.6610E-5	-1.059167E-5	-1.059167E-5	   -0.0000	   13.2025	   11.3238	  -16.2610	
 -640.0000	-2.7370E-5	-2.7370E-5	-1.093622E-5	-1.093622E-5	   -0.0000	   13.2025	   11.3238	  -16.2610	
 -680.0000	-2.8260E-5	-2.8260E-5	-1.126531E-5	-1.126531E-5	   -0.0000	   13.2114	   11.2862	  -16.2938	
 -720.0000	-2.9160E-5	-2.9160E-5	-1.164257E-5	-1.164257E-5	   -0.0000	   13.1983	   11.2751	  -16.3158	
 -760.0000	-3.0190E-5	-3.0190E-5	-1.207175E-5	-1.207175E-5	   -0.0000	   13.1983	   11.2751	  -16.3158	
 -800.0000	-3.1160E-5	-3.1160E-5	-1.247962E-5	-1.247962E-5	    0.0026	   13.2072	   11.2407	  -16.3454	
 -840.0000	-3.2250E-5	-3.2250E-5	-1.301000E-5	-1.301000E-5	    0.0026	   13.1906	   11.2274	  -16.3724	
 -880.0000	-3.3460E-5	-3.3460E-5	-1.356646E-5	-1.356646E-5	    0.0026	   13.1906	   11.2274	  -16.3724	
 -920.0000	-3.4910E-5	-3.4910E-5	-1.420277E-5	-1.420277E-5	    0.0051	   13.1917	   11.2078	  -16.3924	
 -960.0000	-3.6300E-5	-3.6300E-5	-1.488881E-5	-1.488881E-5	    0.0154	   13.2019	   11.2030	  -16.3896	
-1000.0000	-3.8000E-5	-3.8000E-5	-1.570734E-5	-1.570734E-5	    0.0154	   13.2019	   11.2030	  -16.3896	
