GCD Test
Bias: 5000.000000
CV_D0_CO138_LargeDiode_GRConnected_Irradiated_130min
Date/Time: 8/5/2021 2:32:08 PM
Sensor Name: Pin153
Type: N
Annealing Status: Irradiated and Annealed at 60C for 130 Minutes
Environment: -20C
Tester: Andrew Kent

Time Delay per Ramp Step (s): 0.500

CV Time Delay per Measurement (s) :0.500

AC Voltage (V): 0.500

Current Number of measurements per voltage: 4.000

IV Time Delay per Measurement (s) :0.000


BiasVoltage	LCR_Cp_freq1000.0	LCR_Cp_freq10000.0	LCR_Rp_freq1000.0	LCR_Rp_freq10000.0	Temperature	Air_Temp	Humidity	Dewpoint	
    1.0000	3.818E-11	2.025E-11	1.729E+6	1.438E+6	  -20.0084	   11.3199	    6.2612	  -24.5015	
    2.0000	4.233E-11	2.028E-11	1.821E+6	1.471E+6	  -20.0084	   11.3123	    6.2495	  -24.5278	
    3.0000	4.471E-11	2.030E-11	1.901E+6	1.500E+6	  -20.0059	   11.3150	    6.2296	  -24.5612	
    4.0000	4.618E-11	2.031E-11	1.978E+6	1.528E+6	  -20.0033	   11.3092	    6.2217	  -24.5795	
    5.0000	4.754E-11	2.032E-11	2.034E+6	1.553E+6	  -20.0008	   11.3066	    6.1917	  -24.6350	
    6.0000	4.774E-11	2.034E-11	2.121E+6	1.576E+6	  -19.9957	   11.2972	    6.2030	  -24.6216	
    7.0000	4.836E-11	2.035E-11	2.176E+6	1.607E+6	  -19.9957	   11.3011	    6.1806	  -24.6588	
    8.0000	4.843E-11	2.039E-11	2.246E+6	1.624E+6	  -19.9931	   11.3080	    6.1724	  -24.6685	
    9.0000	4.859E-11	2.041E-11	2.308E+6	1.657E+6	  -19.9804	   11.3132	    6.1613	  -24.6845	
   10.0000	4.852E-11	2.043E-11	2.379E+6	1.686E+6	  -19.9779	   11.3091	    6.1695	  -24.6728	
   20.0000	4.756E-11	2.059E-11	3.053E+6	1.872E+6	  -19.9830	   11.3055	    6.1619	  -24.6891	
   30.0000	4.650E-11	2.061E-11	3.535E+6	2.006E+6	  -19.9931	   11.3033	    6.1607	  -24.6929	
   40.0000	4.533E-11	2.059E-11	3.951E+6	2.122E+6	  -19.9982	   11.3043	    6.1376	  -24.7337	
   50.0000	4.418E-11	2.056E-11	4.327E+6	2.243E+6	  -20.0084	   11.3043	    6.1366	  -24.7354	
   60.0000	4.303E-11	2.055E-11	4.681E+6	2.338E+6	  -20.0211	   11.3061	    6.1078	  -24.7860	
   70.0000	4.209E-11	2.052E-11	5.000E+6	2.448E+6	  -20.0237	   11.3066	    6.1066	  -24.7880	
   80.0000	4.117E-11	2.050E-11	5.307E+6	2.544E+6	  -20.0211	   11.3072	    6.1113	  -24.7790	
   90.0000	4.033E-11	2.047E-11	5.600E+6	2.641E+6	  -20.0211	   11.3134	    6.1161	  -24.7658	
  100.0000	3.944E-11	2.044E-11	5.899E+6	2.748E+6	  -20.0033	   11.3127	    6.1075	  -24.7818	
  120.0000	3.809E-11	2.039E-11	6.451E+6	2.942E+6	  -19.9957	   11.3110	    6.1211	  -24.7584	
  140.0000	3.677E-11	2.033E-11	6.998E+6	3.156E+6	  -19.9906	   11.2994	    6.1145	  -24.7789	
  160.0000	3.565E-11	2.027E-11	7.538E+6	3.380E+6	  -19.9855	   11.3048	    6.1467	  -24.7168	
  180.0000	3.455E-11	2.021E-11	8.110E+6	3.624E+6	  -19.9830	   11.2944	    6.1515	  -24.7159	
  200.0000	3.356E-11	2.016E-11	8.700E+6	3.872E+6	  -19.9880	   11.2957	    6.1619	  -24.6963	
  220.0000	3.263E-11	2.011E-11	9.322E+6	4.154E+6	  -19.9931	   11.2885	    6.1392	  -24.7424	
  240.0000	3.175E-11	2.006E-11	9.983E+6	4.467E+6	  -19.9982	   11.2955	    6.1417	  -24.7327	
  260.0000	3.091E-11	2.002E-11	1.069E+7	4.777E+6	  -20.0059	   11.3036	    6.1237	  -24.7593	
  280.0000	3.010E-11	1.998E-11	1.145E+7	5.158E+6	  -20.0109	   11.3065	    6.1297	  -24.7463	
  300.0000	2.933E-11	1.994E-11	1.228E+7	5.552E+6	  -20.0211	   11.3108	    6.1034	  -24.7906	
  320.0000	2.859E-11	1.990E-11	1.317E+7	5.997E+6	  -20.0186	   11.3034	    6.0974	  -24.8069	
  340.0000	2.788E-11	1.987E-11	1.418E+7	6.496E+6	  -20.0160	   11.3093	    6.1025	  -24.7934	
  360.0000	2.720E-11	1.984E-11	1.529E+7	7.046E+6	  -20.0109	   11.3119	    6.1047	  -24.7875	
  380.0000	2.655E-11	1.982E-11	1.651E+7	7.708E+6	  -20.0008	   11.3155	    6.1085	  -24.7780	
  400.0000	2.591E-11	1.979E-11	1.789E+7	8.444E+6	  -20.0008	   11.3115	    6.0889	  -24.8165	
  420.0000	2.524E-11	1.978E-11	1.955E+7	9.254E+6	  -19.9880	   11.3086	    6.0623	  -24.8668	
  440.0000	2.462E-11	1.976E-11	2.138E+7	1.020E+7	  -19.9830	   11.3066	    6.0427	  -24.9041	
  460.0000	2.405E-11	1.975E-11	2.342E+7	1.128E+7	  -19.9804	   11.3085	    6.0598	  -24.8715	
  480.0000	2.351E-11	1.974E-11	2.581E+7	1.249E+7	  -19.9830	   11.3024	    6.0285	  -24.9331	
  500.0000	2.299E-11	1.972E-11	2.868E+7	1.385E+7	  -19.9880	   11.3006	    6.0250	  -24.9408	
  520.0000	2.253E-11	1.972E-11	3.190E+7	1.532E+7	  -19.9906	   11.2986	    6.0474	  -24.9013	
  540.0000	2.214E-11	1.971E-11	3.553E+7	1.692E+7	  -20.0008	   11.2866	    6.0582	  -24.8905	
  560.0000	2.178E-11	1.970E-11	3.980E+7	1.860E+7	  -20.0008	   11.2803	    6.0452	  -24.9187	
  580.0000	2.148E-11	1.970E-11	4.455E+7	2.037E+7	  -20.0008	   11.2803	    6.0528	  -24.9048	
  600.0000	2.124E-11	1.969E-11	4.939E+7	2.218E+7	  -20.0059	   11.2775	    6.0383	  -24.9335	
  620.0000	2.104E-11	1.969E-11	5.469E+7	2.385E+7	  -20.0084	   11.2754	    6.0617	  -24.8923	
  640.0000	2.088E-11	1.970E-11	5.993E+7	2.527E+7	  -20.0135	   11.2749	    6.0563	  -24.9024	
  660.0000	2.076E-11	1.971E-11	6.444E+7	2.647E+7	  -20.0160	   11.2681	    6.0813	  -24.8620	
  680.0000	2.067E-11	1.973E-11	6.788E+7	2.728E+7	  -20.0135	   11.2648	    6.0927	  -24.8438	
  700.0000	2.062E-11	1.975E-11	6.933E+7	2.786E+7	  -20.0109	   11.2669	    6.1221	  -24.7890	
  720.0000	2.061E-11	1.978E-11	6.860E+7	2.791E+7	  -19.9906	   11.2702	    6.1265	  -24.7787	
  740.0000	2.065E-11	1.981E-11	6.611E+7	2.743E+7	  -19.9830	   11.2751	    6.1199	  -24.7870	
  760.0000	2.078E-11	1.984E-11	6.193E+7	2.627E+7	  -19.9753	   11.2689	    6.1135	  -24.8030	
  780.0000	2.097E-11	1.988E-11	5.917E+7	2.446E+7	  -19.9779	   11.2614	    6.1293	  -24.7799	
  800.0000	2.119E-11	1.993E-11	5.693E+7	2.207E+7	  -19.9804	   11.2533	    6.1240	  -24.7955	
  820.0000	2.143E-11	2.001E-11	5.486E+7	1.955E+7	  -19.9931	   11.2516	    6.1290	  -24.7877	
  840.0000	2.165E-11	2.009E-11	5.329E+7	1.750E+7	  -20.0033	   11.2545	    6.1072	  -24.8250	
  860.0000	2.185E-11	2.022E-11	5.164E+7	1.561E+7	  -20.0211	   11.2499	    6.1034	  -24.8352	
  880.0000	2.202E-11	2.036E-11	5.023E+7	1.426E+7	  -20.0237	   11.2504	    6.1063	  -24.8297	
  900.0000	2.222E-11	2.053E-11	4.819E+7	1.317E+7	  -20.0287	   11.2531	    6.1189	  -24.8049	
  920.0000	2.238E-11	2.069E-11	4.637E+7	1.245E+7	  -20.0287	   11.2543	    6.1059	  -24.8274	
  940.0000	2.256E-11	2.085E-11	4.404E+7	1.190E+7	  -20.0186	   11.2482	    6.1015	  -24.8399	
  960.0000	2.266E-11	2.100E-11	4.157E+7	1.154E+7	  -20.0084	   11.2487	    6.0996	  -24.8430	
  980.0000	2.287E-11	2.114E-11	3.923E+7	1.120E+7	  -20.0008	   11.2458	    6.1018	  -24.8410	
 1000.0000	2.308E-11	2.129E-11	3.716E+7	1.088E+7	  -19.9779	   11.2506	    6.0917	  -24.8559	
