GCD Test
Bias: 5000.000000
CV_34331_042_2-S_HM_XX_DIODEHALF_Irradiated
Date/Time: 10/25/2021 6:02:54 PM
Sensor Name: DIODEHALF
Type: P
Annealing Status: Irradiated and Annealed at 60C for 80 Minutes
Environment: -20C
Tester: Andrew Kent

Time Delay per Ramp Step (s): 1.000

CV Time Delay per Measurement (s) :0.500

AC Voltage (V): 0.500

Current Number of measurements per voltage: 4.000

IV Time Delay per Measurement (s) :0.000


BiasVoltage	LCR_Cp_freq1000.0	LCR_Cp_freq10000.0	LCR_Rp_freq1000.0	LCR_Rp_freq10000.0	Temperature	Air_Temp	Humidity	Dewpoint	
  -10.0000	2.284E-11	5.631E-12	4.457E+6	3.231E+6	  -19.9168	    9.1827	    3.1708	  -33.2489	
  -20.0000	2.319E-11	5.663E-12	4.932E+6	3.344E+6	  -19.9575	    9.2081	    3.1724	  -33.2264	
  -30.0000	2.290E-11	5.690E-12	5.270E+6	3.416E+6	  -19.9855	    9.2914	    3.1733	  -33.1661	
  -40.0000	2.277E-11	5.714E-12	5.483E+6	3.472E+6	  -19.9728	    9.2801	    3.1626	  -33.2085	
  -50.0000	2.255E-11	5.734E-12	5.656E+6	3.507E+6	  -19.9855	    9.2611	    3.1597	  -33.2307	
  -60.0000	2.248E-11	5.747E-12	5.784E+6	3.535E+6	  -20.0084	    9.2673	    3.1524	  -33.2500	
  -70.0000	2.229E-11	5.757E-12	5.907E+6	3.576E+6	  -19.9423	    9.2768	    3.1664	  -33.1985	
  -80.0000	2.217E-11	5.765E-12	6.008E+6	3.597E+6	  -19.8812	    9.2384	    3.1572	  -33.2545	
  -90.0000	2.204E-11	5.772E-12	6.079E+6	3.624E+6	  -19.8965	    9.2384	    3.1664	  -33.2249	
 -100.0000	2.205E-11	5.779E-12	6.142E+6	3.618E+6	  -19.9321	    9.2418	    3.1733	  -33.1820	
 -110.0000	2.206E-11	5.785E-12	6.174E+6	3.640E+6	  -19.9346	    9.2336	    3.1834	  -33.1734	
 -120.0000	2.189E-11	5.798E-12	6.251E+6	3.658E+6	  -19.9753	    9.2558	    3.1806	  -33.1673	
 -130.0000	2.198E-11	5.805E-12	6.266E+6	3.647E+6	  -19.9652	    9.2370	    3.1945	  -33.1356	
 -140.0000	2.185E-11	5.804E-12	6.317E+6	3.679E+6	  -19.9677	    9.2277	    3.1951	  -33.1400	
 -150.0000	2.182E-11	5.806E-12	6.335E+6	3.692E+6	  -19.9753	    9.2277	    3.2071	  -33.1017	
 -160.0000	2.177E-11	5.805E-12	6.375E+6	3.717E+6	  -19.9321	    9.2506	    3.2277	  -33.0207	
 -170.0000	2.172E-11	5.806E-12	6.401E+6	3.726E+6	  -19.9016	    9.2474	    3.2337	  -33.0039	
 -180.0000	2.171E-11	5.807E-12	6.414E+6	3.733E+6	  -19.9575	    9.2191	    3.2391	  -33.0064	
 -190.0000	2.157E-11	5.808E-12	6.462E+6	3.748E+6	  -19.8990	    9.2291	    3.2486	  -32.9697	
 -200.0000	2.165E-11	5.813E-12	6.457E+6	3.729E+6	  -19.9677	    9.2309	    3.2521	  -32.9575	
 -210.0000	2.156E-11	5.808E-12	6.492E+6	3.763E+6	  -19.9092	    9.2514	    3.2505	  -32.9483	
 -220.0000	2.155E-11	5.811E-12	6.497E+6	3.761E+6	  -19.9473	    9.2670	    3.2423	  -32.9635	
 -230.0000	2.153E-11	5.813E-12	6.520E+6	3.761E+6	  -19.9448	    9.2670	    3.2302	  -33.0014	
 -240.0000	2.149E-11	5.810E-12	6.540E+6	3.784E+6	  -19.9931	    9.1962	    3.2388	  -33.0232	
 -250.0000	2.148E-11	5.809E-12	6.543E+6	3.801E+6	  -19.9906	    9.2156	    3.2318	  -33.0318	
 -260.0000	2.136E-11	5.809E-12	6.576E+6	3.799E+6	  -19.9982	    9.2364	    3.2372	  -33.0005	
 -270.0000	2.142E-11	5.809E-12	6.585E+6	3.809E+6	  -19.9626	    9.2467	    3.2426	  -32.9765	
 -280.0000	2.144E-11	5.808E-12	6.598E+6	3.823E+6	  -19.9652	    9.2976	    3.2268	  -32.9913	
 -290.0000	2.123E-11	5.805E-12	6.632E+6	3.851E+6	  -19.9880	    9.2879	    3.2340	  -32.9750	
 -300.0000	2.123E-11	5.805E-12	6.647E+6	3.857E+6	  -19.9702	    9.2553	    3.2460	  -32.9596	
 -310.0000	2.119E-11	5.805E-12	6.670E+6	3.867E+6	  -20.0618	    9.2553	    3.2473	  -32.9556	
 -320.0000	2.114E-11	5.805E-12	6.680E+6	3.873E+6	  -20.0059	    9.2648	    3.2647	  -32.8944	
 -330.0000	2.112E-11	5.804E-12	6.701E+6	3.875E+6	  -20.0287	    9.2589	    3.2761	  -32.8629	
 -340.0000	2.121E-11	5.806E-12	6.684E+6	3.872E+6	  -20.0516	    9.2774	    3.2739	  -32.8570	
 -350.0000	2.112E-11	5.806E-12	6.714E+6	3.877E+6	  -20.0974	    9.2617	    3.2707	  -32.8777	
 -360.0000	2.120E-11	5.805E-12	6.720E+6	3.896E+6	  -20.0822	    9.3224	    3.2796	  -32.8082	
 -370.0000	2.111E-11	5.804E-12	6.744E+6	3.908E+6	  -20.0822	    9.3343	    3.2808	  -32.7961	
 -380.0000	2.103E-11	5.803E-12	6.766E+6	3.912E+6	  -20.1051	    9.3046	    3.2840	  -32.8067	
 -390.0000	2.106E-11	5.804E-12	6.764E+6	3.920E+6	  -20.1432	    9.3285	    3.2815	  -32.7981	
 -400.0000	2.104E-11	5.803E-12	6.769E+6	3.932E+6	  -20.0644	    9.3369	    3.2666	  -32.8388	
 -410.0000	2.095E-11	5.804E-12	6.793E+6	3.939E+6	  -20.0720	    9.2960	    3.2615	  -32.8828	
 -420.0000	2.090E-11	5.807E-12	6.816E+6	3.931E+6	  -20.0796	    9.3010	    3.2770	  -32.8309	
 -430.0000	2.088E-11	5.804E-12	6.820E+6	3.944E+6	  -20.0440	    9.2951	    3.2571	  -32.8974	
 -440.0000	2.098E-11	5.805E-12	6.818E+6	3.949E+6	  -20.0389	    9.3291	    3.2612	  -32.8610	
 -450.0000	2.087E-11	5.803E-12	6.833E+6	3.960E+6	  -20.0567	    9.3220	    3.2530	  -32.8917	
 -460.0000	2.080E-11	5.804E-12	6.861E+6	3.963E+6	  -20.1305	    9.3220	    3.2622	  -32.8629	
 -470.0000	2.073E-11	5.803E-12	6.882E+6	3.979E+6	  -20.0822	    9.3387	    3.2565	  -32.8693	
 -480.0000	2.070E-11	5.803E-12	6.904E+6	3.981E+6	  -19.9906	    9.3577	    3.2619	  -32.8394	
 -490.0000	2.074E-11	5.804E-12	6.886E+6	3.984E+6	  -20.0008	    9.3288	    3.2694	  -32.8354	
 -500.0000	2.072E-11	5.805E-12	6.910E+6	3.981E+6	  -20.0338	    9.3039	    3.2732	  -32.8407	
 -510.0000	2.079E-11	5.804E-12	6.902E+6	3.992E+6	  -19.9855	    9.3125	    3.2634	  -32.8655	
 -520.0000	2.068E-11	5.804E-12	6.920E+6	4.001E+6	  -19.9804	    9.2952	    3.2663	  -32.8685	
 -530.0000	2.060E-11	5.802E-12	6.955E+6	4.018E+6	  -20.0084	    9.2722	    3.2868	  -32.8202	
 -540.0000	2.064E-11	5.806E-12	6.939E+6	4.003E+6	  -19.9575	    9.3225	    3.2581	  -32.8755	
 -550.0000	2.068E-11	5.807E-12	6.940E+6	3.989E+6	  -20.0160	    9.3013	    3.2552	  -32.8990	
 -560.0000	2.075E-11	5.807E-12	6.919E+6	3.994E+6	  -20.0033	    9.2769	    3.2694	  -32.8712	
 -570.0000	2.063E-11	5.807E-12	6.953E+6	4.000E+6	  -20.0033	    9.3028	    3.2517	  -32.9089	
 -580.0000	2.073E-11	5.808E-12	6.938E+6	3.991E+6	  -20.0059	    9.3053	    3.2517	  -32.9072	
 -590.0000	2.072E-11	5.807E-12	6.941E+6	4.007E+6	  -20.0160	    9.3306	    3.2543	  -32.8818	
 -600.0000	2.063E-11	5.806E-12	6.959E+6	4.018E+6	  -20.0135	    9.3408	    3.2479	  -32.8947	
 -610.0000	2.066E-11	5.809E-12	6.958E+6	3.998E+6	  -19.9448	    9.3203	    3.2479	  -32.9088	
 -620.0000	2.072E-11	5.809E-12	6.947E+6	4.000E+6	  -19.9982	    9.3073	    3.2369	  -32.9527	
 -630.0000	2.065E-11	5.809E-12	6.967E+6	4.003E+6	  -19.9957	    9.3027	    3.2423	  -32.9389	
 -640.0000	2.069E-11	5.811E-12	6.976E+6	3.996E+6	  -20.0211	    9.3153	    3.2388	  -32.9412	
 -650.0000	2.070E-11	5.810E-12	6.958E+6	3.997E+6	  -20.0186	    9.3363	    3.2353	  -32.9377	
 -660.0000	2.071E-11	5.812E-12	6.965E+6	3.997E+6	  -20.0287	    9.3795	    3.2306	  -32.8969	
 -670.0000	2.075E-11	5.813E-12	6.955E+6	3.994E+6	  -19.9270	    9.3085	    3.2432	  -32.9319	
 -680.0000	2.066E-11	5.812E-12	6.992E+6	4.004E+6	  -20.0008	    9.3649	    3.2423	  -32.8960	
 -690.0000	2.066E-11	5.812E-12	6.984E+6	4.005E+6	  -20.0033	    9.3639	    3.2672	  -32.8182	
 -700.0000	2.073E-11	5.812E-12	6.971E+6	4.009E+6	  -19.9550	    9.3524	    3.2717	  -32.8122	
 -710.0000	2.084E-11	5.815E-12	6.959E+6	3.980E+6	  -19.9855	    9.3687	    3.2698	  -32.8070	
 -720.0000	2.071E-11	5.812E-12	6.987E+6	4.000E+6	  -19.9550	    9.3622	    3.2748	  -32.7956	
 -730.0000	2.065E-11	5.813E-12	7.002E+6	4.011E+6	  -19.9626	    9.3574	    3.2540	  -32.8644	
 -740.0000	2.076E-11	5.817E-12	6.983E+6	3.988E+6	  -19.9830	    9.3299	    3.2666	  -32.8436	
 -750.0000	2.077E-11	5.818E-12	6.967E+6	3.979E+6	  -19.9473	    9.3299	    3.2562	  -32.8763	
 -760.0000	2.072E-11	5.815E-12	6.989E+6	4.002E+6	  -20.0059	    9.3442	    3.2736	  -32.8120	
 -770.0000	2.072E-11	5.817E-12	6.988E+6	3.995E+6	  -20.0262	    9.3665	    3.2657	  -32.8213	
 -780.0000	2.068E-11	5.815E-12	7.001E+6	4.003E+6	  -19.9753	    9.3260	    3.2729	  -32.8265	
 -790.0000	2.074E-11	5.815E-12	6.980E+6	4.007E+6	  -20.0033	    9.3238	    3.2764	  -32.8171	
 -800.0000	2.078E-11	5.816E-12	6.984E+6	3.989E+6	  -19.9626	    9.3507	    3.2799	  -32.7878	
 -810.0000	2.071E-11	5.816E-12	7.000E+6	4.008E+6	  -20.0135	    9.3859	    3.2786	  -32.7674	
 -820.0000	2.070E-11	5.815E-12	7.002E+6	4.003E+6	  -20.0008	    9.3766	    3.2745	  -32.7867	
 -830.0000	2.063E-11	5.817E-12	7.003E+6	4.011E+6	  -20.0135	    9.3658	    3.2853	  -32.7606	
 -840.0000	2.076E-11	5.818E-12	6.992E+6	3.998E+6	  -19.9906	    9.3775	    3.2846	  -32.7545	
 -850.0000	2.075E-11	5.819E-12	6.986E+6	3.988E+6	  -20.0567	    9.3778	    3.2843	  -32.7553	
 -860.0000	2.074E-11	5.817E-12	7.008E+6	4.012E+6	  -20.0516	    9.3350	    3.2938	  -32.7552	
 -870.0000	2.065E-11	5.820E-12	7.025E+6	4.007E+6	  -20.0923	    9.3952	    3.2935	  -32.7147	
 -880.0000	2.065E-11	5.817E-12	7.021E+6	4.012E+6	  -19.9601	    9.4136	    3.2830	  -32.7345	
 -890.0000	2.069E-11	5.820E-12	7.006E+6	4.008E+6	  -20.0211	    9.3984	    3.2837	  -32.7430	
 -900.0000	2.074E-11	5.819E-12	7.000E+6	3.991E+6	  -20.0237	    9.3998	    3.2897	  -32.7233	
 -910.0000	2.075E-11	5.819E-12	7.003E+6	4.002E+6	  -20.0059	    9.3775	    3.2682	  -32.8059	
 -920.0000	2.061E-11	5.820E-12	7.023E+6	4.006E+6	  -19.9957	    9.3870	    3.2647	  -32.8102	
 -930.0000	2.071E-11	5.818E-12	7.005E+6	4.006E+6	  -20.0186	    9.3703	    3.2717	  -32.7999	
 -940.0000	2.065E-11	5.816E-12	7.012E+6	4.018E+6	  -20.0338	    9.3586	    3.2631	  -32.8347	
 -950.0000	2.073E-11	5.822E-12	7.012E+6	4.007E+6	  -20.0033	    9.3947	    3.2685	  -32.7930	
 -960.0000	2.062E-11	5.818E-12	7.038E+6	4.015E+6	  -19.9550	    9.4140	    3.2720	  -32.7688	
 -970.0000	2.066E-11	5.820E-12	7.005E+6	4.010E+6	  -20.0389	    9.4107	    3.2707	  -32.7751	
 -980.0000	2.070E-11	5.821E-12	7.021E+6	3.998E+6	  -19.9906	    9.3921	    3.2802	  -32.7582	
 -990.0000	2.067E-11	5.821E-12	7.031E+6	4.007E+6	  -20.0008	    9.4097	    3.2774	  -32.7550	
-1000.0000	2.073E-11	5.826E-12	7.023E+6	3.997E+6	  -19.9499	    9.4087	    3.2685	  -32.7834	
