GCD Test
Bias: 5000.000000
CV_34331_042_2-S_HM_XX_DIODEHALFPSTOP_GRConnected_Irradiated
Date/Time: 10/21/2021 3:16:08 PM
Sensor Name: DIODEHALFPSTOP
Type: P
Annealing Status: Irradiated and Annealed at 60C for 80 min
Environment: -15C
Tester: Andrew Kent

Time Delay per Ramp Step (s): 1.000

CV Time Delay per Measurement (s) :0.500

AC Voltage (V): 0.500

Current Number of measurements per voltage: 4.000

IV Time Delay per Measurement (s) :0.500


BiasVoltage	LCR_Cp_freq1000.0	LCR_Cp_freq10000.0	LCR_Rp_freq1000.0	LCR_Rp_freq10000.0	Temperature	Air_Temp	Humidity	Dewpoint	
  -10.0000	4.275E-12	1.168E-12	8.018E+6	4.771E+7	  -14.7867	    5.7476	   12.6140	  -20.8662	
  -20.0000	3.874E-12	1.186E-12	8.523E+6	4.728E+7	  -14.7014	    6.0488	   12.6382	  -20.6050	
  -30.0000	4.227E-12	1.181E-12	8.555E+6	4.683E+7	  -14.6373	    5.9679	   12.6307	  -20.6761	
  -40.0000	4.694E-12	1.168E-12	8.532E+6	4.662E+7	  -14.6065	    6.1889	   12.6225	  -20.5080	
  -50.0000	5.218E-12	1.157E-12	8.359E+6	4.619E+7	  -14.6335	    6.0030	   12.6136	  -20.6638	
  -60.0000	5.623E-12	1.145E-12	8.327E+6	4.512E+7	  -14.6335	    6.0030	   12.6136	  -20.6638	
  -70.0000	5.977E-12	1.132E-12	8.344E+6	4.390E+7	  -14.6866	    5.7601	   12.6344	  -20.8377	
  -80.0000	6.425E-12	1.120E-12	8.270E+6	4.317E+7	  -14.7785	    5.7629	   12.6275	  -20.8418	
  -90.0000	6.779E-12	1.109E-12	8.207E+6	4.179E+7	  -14.8483	    5.9317	   12.6101	  -20.7235	
 -100.0000	7.071E-12	1.085E-12	8.118E+6	3.944E+7	  -14.9142	    5.9601	   12.5985	  -20.7115	
 -110.0000	7.520E-12	1.075E-12	8.098E+6	3.850E+7	  -14.9824	    6.0565	   12.6232	  -20.6125	
 -120.0000	7.781E-12	1.072E-12	8.119E+6	3.795E+7	  -14.9824	    6.0565	   12.6232	  -20.6125	
 -130.0000	8.222E-12	1.055E-12	8.101E+6	3.647E+7	  -14.9997	    5.8925	   12.6328	  -20.7340	
 -140.0000	8.577E-12	1.039E-12	8.047E+6	3.501E+7	  -14.9977	    5.7666	   12.6396	  -20.8278	
 -150.0000	8.990E-12	1.025E-12	7.964E+6	3.361E+7	  -14.9090	    5.6445	   12.6301	  -20.9334	
 -160.0000	9.312E-12	1.007E-12	7.919E+6	3.243E+7	  -14.7916	    5.6111	   12.6444	  -20.9470	
 -170.0000	9.762E-12	9.852E-13	7.944E+6	3.094E+7	  -14.7916	    5.6111	   12.6444	  -20.9470	
 -180.0000	1.018E-11	9.626E-13	7.908E+6	2.958E+7	  -14.6789	    5.7757	   12.6226	  -20.8361	
 -190.0000	1.059E-11	9.411E-13	7.873E+6	2.828E+7	  -14.5943	    5.8912	   12.6664	  -20.7046	
 -200.0000	1.098E-11	9.307E-13	7.868E+6	2.730E+7	  -14.5749	    5.5422	   12.6188	  -21.0250	
 -210.0000	1.116E-11	9.109E-13	7.869E+6	2.627E+7	  -14.5834	    5.8931	   12.6486	  -20.7192	
 -220.0000	1.155E-11	8.918E-13	7.799E+6	2.511E+7	  -14.5834	    5.8931	   12.6486	  -20.7192	
 -230.0000	1.180E-11	8.777E-13	7.821E+6	2.428E+7	  -14.6606	    5.6855	   12.6708	  -20.8640	
 -240.0000	1.217E-11	8.599E-13	7.862E+6	2.328E+7	  -14.7390	    5.9755	   12.6951	  -20.6116	
 -250.0000	1.245E-11	8.470E-13	7.898E+6	2.250E+7	  -14.8269	    6.1259	   12.6614	  -20.5227	
 -260.0000	1.260E-11	8.363E-13	7.873E+6	2.172E+7	  -14.8977	    5.9702	   12.6777	  -20.6315	
 -270.0000	1.268E-11	8.231E-13	7.917E+6	2.111E+7	  -14.9365	    5.7975	   12.6546	  -20.7896	
 -280.0000	1.307E-11	8.065E-13	7.941E+6	2.031E+7	  -14.9365	    5.7975	   12.6546	  -20.7896	
 -290.0000	1.341E-11	7.913E-13	7.938E+6	1.959E+7	  -14.9379	    5.9722	   12.6542	  -20.6513	
 -300.0000	1.350E-11	7.701E-13	7.967E+6	1.883E+7	  -14.8958	    5.7923	   12.6485	  -20.7994	
 -310.0000	1.387E-11	7.549E-13	7.959E+6	1.819E+7	  -14.8174	    5.7456	   12.6427	  -20.8418	
 -320.0000	1.406E-11	7.389E-13	7.956E+6	1.763E+7	  -14.7460	    5.9548	   12.6505	  -20.6685	
 -330.0000	1.434E-11	7.214E-13	7.950E+6	1.699E+7	  -14.7460	    5.9548	   12.6505	  -20.6685	
 -340.0000	1.470E-11	7.030E-13	7.954E+6	1.637E+7	  -14.6633	    5.8994	   12.6410	  -20.7211	
 -350.0000	1.480E-11	6.853E-13	7.951E+6	1.581E+7	  -14.6565	    5.8401	   12.6273	  -20.7807	
 -360.0000	1.505E-11	6.745E-13	7.969E+6	1.536E+7	  -14.6863	    5.8861	   12.6611	  -20.7135	
 -370.0000	1.535E-11	6.561E-13	7.987E+6	1.486E+7	  -14.7297	    5.8441	   12.6328	  -20.7725	
 -380.0000	1.529E-11	6.492E-13	8.010E+6	1.449E+7	  -14.7297	    5.8441	   12.6328	  -20.7725	
 -390.0000	1.557E-11	6.364E-13	8.004E+6	1.402E+7	  -14.8038	    6.0361	   12.6704	  -20.5858	
 -400.0000	1.574E-11	6.254E-13	8.079E+6	1.366E+7	  -14.8952	    5.8073	   12.6586	  -20.7783	
 -410.0000	1.578E-11	6.206E-13	8.053E+6	1.328E+7	  -14.9698	    6.3976	   12.6948	  -20.2765	
 -420.0000	1.594E-11	6.125E-13	8.135E+6	1.298E+7	  -14.9698	    6.3976	   12.6948	  -20.2765	
 -430.0000	1.604E-11	6.027E-13	8.158E+6	1.268E+7	  -15.0157	    5.9541	   12.6601	  -20.6604	
 -440.0000	1.602E-11	5.987E-13	8.162E+6	1.236E+7	  -15.0427	    5.9291	   12.6586	  -20.6815	
 -450.0000	1.638E-11	5.765E-13	8.199E+6	1.196E+7	  -15.0252	    6.5119	   12.6718	  -20.2067	
 -460.0000	1.656E-11	5.630E-13	8.209E+6	1.167E+7	  -14.9289	    6.0061	   12.6602	  -20.6189	
 -470.0000	1.676E-11	5.541E-13	8.171E+6	1.140E+7	  -14.8161	    5.7347	   12.6633	  -20.8317	
 -480.0000	1.688E-11	5.399E-13	8.153E+6	1.109E+7	  -14.8161	    5.7347	   12.6633	  -20.8317	
 -490.0000	1.709E-11	5.216E-13	8.189E+6	1.080E+7	  -14.7016	    5.6968	   12.6742	  -20.8520	
 -500.0000	1.738E-11	5.026E-13	8.197E+6	1.048E+7	  -14.6139	    5.8026	   12.6421	  -20.7970	
 -510.0000	1.759E-11	4.942E-13	8.185E+6	1.024E+7	  -14.5786	    5.8602	   12.6623	  -20.7330	
 -520.0000	1.770E-11	4.848E-13	8.174E+6	1.002E+7	  -14.6082	    5.7259	   12.6827	  -20.8212	
 -530.0000	1.783E-11	4.757E-13	8.174E+6	9.795E+6	  -14.6082	    5.7259	   12.6827	  -20.8212	
 -540.0000	1.806E-11	4.724E-13	8.229E+6	9.604E+6	  -14.6785	    5.9345	   12.6898	  -20.6490	
 -550.0000	1.814E-11	4.689E-13	8.229E+6	9.420E+6	  -14.7565	    5.9427	   12.6820	  -20.6496	
 -560.0000	1.821E-11	4.665E-13	8.191E+6	9.245E+6	  -14.8319	    5.5800	   12.6701	  -20.9485	
 -570.0000	1.817E-11	4.739E-13	8.229E+6	9.136E+6	  -14.8876	    6.0452	   12.6785	  -20.5713	
 -580.0000	1.824E-11	4.733E-13	8.226E+6	8.995E+6	  -14.8876	    6.0452	   12.6785	  -20.5713	
 -590.0000	1.840E-11	4.673E-13	8.283E+6	8.806E+6	  -14.9337	    6.0203	   12.6771	  -20.5923	
 -600.0000	1.845E-11	4.682E-13	8.246E+6	8.680E+6	  -14.9375	    5.6948	   12.6570	  -20.8691	
 -610.0000	1.862E-11	4.659E-13	8.293E+6	8.506E+6	  -14.9598	    5.8186	   12.6645	  -20.7640	
 -620.0000	1.871E-11	4.614E-13	8.266E+6	8.372E+6	  -14.9053	    5.9023	   12.6733	  -20.6895	
 -630.0000	1.859E-11	4.636E-13	8.295E+6	8.259E+6	  -14.9053	    5.9023	   12.6733	  -20.6895	
 -640.0000	1.889E-11	4.460E-13	8.258E+6	8.054E+6	  -14.8235	    5.8369	   12.6657	  -20.7484	
 -650.0000	1.900E-11	4.485E-13	8.276E+6	7.932E+6	  -14.7361	    5.7389	   12.6596	  -20.8317	
 -660.0000	1.920E-11	4.442E-13	8.233E+6	7.781E+6	  -14.6717	    5.9220	   12.6523	  -20.6928	
 -670.0000	1.920E-11	4.409E-13	8.278E+6	7.660E+6	  -14.6596	    5.6520	   12.6667	  -20.8944	
 -680.0000	1.940E-11	4.446E-13	8.198E+6	7.547E+6	  -14.6596	    5.6520	   12.6667	  -20.8944	
 -690.0000	1.936E-11	4.423E-13	8.235E+6	7.439E+6	  -14.7061	    5.9101	   12.6743	  -20.6824	
 -700.0000	1.941E-11	4.512E-13	8.246E+6	7.353E+6	  -14.7579	    5.9858	   12.7066	  -20.5930	
 -710.0000	1.944E-11	4.640E-13	8.242E+6	7.283E+6	  -14.8455	    5.9021	   12.6541	  -20.7071	
 -720.0000	1.939E-11	4.685E-13	8.256E+6	7.196E+6	  -14.9269	    5.9049	   12.6560	  -20.7031	
 -730.0000	1.950E-11	4.767E-13	8.297E+6	7.116E+6	  -14.9269	    5.9049	   12.6560	  -20.7031	
 -740.0000	1.951E-11	4.824E-13	8.322E+6	7.041E+6	  -14.9865	    5.8377	   12.6686	  -20.7451	
 -750.0000	1.943E-11	5.117E-13	8.319E+6	7.034E+6	  -15.0178	    5.9483	   12.6925	  -20.6356	
 -760.0000	1.939E-11	5.078E-13	8.395E+6	6.927E+6	  -15.0010	    6.0671	   12.6351	  -20.5933	
 -770.0000	1.940E-11	5.130E-13	8.324E+6	6.837E+6	  -14.9505	    5.8453	   12.6377	  -20.7670	
 -780.0000	1.939E-11	5.148E-13	8.348E+6	6.759E+6	  -14.8793	    5.6643	   12.6353	  -20.9130	
 -790.0000	1.983E-11	5.012E-13	8.332E+6	6.622E+6	  -14.8793	    5.6643	   12.6353	  -20.9130	
 -800.0000	1.984E-11	5.042E-13	8.364E+6	6.547E+6	  -14.7492	    5.4840	   12.6377	  -21.0541	
 -810.0000	1.997E-11	5.014E-13	8.302E+6	6.450E+6	  -14.6590	    5.6190	   12.6710	  -20.9167	
 -820.0000	1.999E-11	5.016E-13	8.330E+6	6.358E+6	  -14.6243	    5.7717	   12.6543	  -20.8104	
 -830.0000	2.024E-11	5.078E-13	8.333E+6	6.288E+6	  -14.6445	    5.7574	   12.6593	  -20.8173	
 -840.0000	2.012E-11	5.234E-13	8.330E+6	6.262E+6	  -14.6445	    5.7574	   12.6593	  -20.8173	
 -850.0000	2.023E-11	5.283E-13	8.327E+6	6.184E+6	  -14.6967	    5.7553	   12.6825	  -20.7980	
 -860.0000	2.017E-11	5.381E-13	8.391E+6	6.148E+6	  -14.7651	    5.5833	   12.7276	  -20.8940	
 -870.0000	2.012E-11	5.523E-13	8.327E+6	6.100E+6	  -14.8438	    5.9147	   12.7101	  -20.6464	
 -880.0000	2.007E-11	5.624E-13	8.412E+6	6.057E+6	  -14.9238	    5.6142	   12.7205	  -20.8759	
 -890.0000	2.016E-11	5.687E-13	8.390E+6	6.008E+6	  -14.9238	    5.6142	   12.7205	  -20.8759	
 -900.0000	2.014E-11	5.905E-13	8.406E+6	5.986E+6	  -14.9710	    5.9124	   12.7327	  -20.6279	
 -910.0000	2.015E-11	6.020E-13	8.422E+6	5.945E+6	  -15.0186	    5.6049	   12.6981	  -20.9034	
 -920.0000	2.000E-11	6.130E-13	8.428E+6	5.907E+6	  -15.0113	    5.7244	   12.7343	  -20.7759	
 -930.0000	2.007E-11	6.227E-13	8.372E+6	5.864E+6	  -14.9299	    5.9929	   12.7228	  -20.5727	
 -940.0000	2.025E-11	6.194E-13	8.422E+6	5.800E+6	  -14.9299	    5.9929	   12.7228	  -20.5727	
 -950.0000	2.023E-11	6.254E-13	8.394E+6	5.732E+6	  -14.8291	    5.7066	   12.7156	  -20.8068	
 -960.0000	2.048E-11	6.133E-13	8.398E+6	5.640E+6	  -14.7083	    6.0291	   12.7297	  -20.5377	
 -970.0000	2.063E-11	6.246E-13	8.379E+6	5.596E+6	  -14.6369	    5.8202	   12.7493	  -20.6862	
 -980.0000	2.065E-11	6.289E-13	8.428E+6	5.550E+6	  -14.5887	    5.8480	   12.7334	  -20.6784	
 -990.0000	2.074E-11	6.359E-13	8.416E+6	5.513E+6	  -14.5887	    5.8480	   12.7334	  -20.6784	
-1000.0000	2.061E-11	6.435E-13	8.402E+6	5.475E+6	  -14.6190	    5.9398	   12.7242	  -20.6137	
