34331_042_2-S_HM_XX_Irrad_1100min_Single
Date/Time: 11/17/2021 2:29:32 PM
Sensor Name: 34331_042_2-S_HM_XX_Irrad_1100min
Type: P
Annealing Status: 1100 min
Environment: -20.0C
Tester: Eric Spencer
Notes: After Alibava

Time Delay per Ramp Step (s): 1.000

CV Time Delay per Measurement (s) :0.500

AC Voltage (V): 0.500

Current Number of measurements per voltage: 4.000

IV Time Delay per Measurement (s) :0.500


BiasVoltage	Bias Current_Avg	Bias Current_0	Bias Current_1	Bias Current_2	Bias Current_3	Temperature	Air_Temp	Humidity	Dewpoint	
  -10.0000	-7.9000E-7	-7.9000E-7	-7.9000E-7	-7.9000E-7	-7.9000E-7	  -19.8000	   26.2195	    1.2582	    0.0000	
  -20.0000	-1.0100E-6	-1.0100E-6	-1.0100E-6	-1.0100E-6	-1.0100E-6	  -19.8000	   26.2195	    1.2582	    0.0000	
  -30.0000	-1.1900E-6	-1.1900E-6	-1.1900E-6	-1.1900E-6	-1.1900E-6	  -19.8000	   26.2195	    1.2582	    0.0000	
  -40.0000	-1.3400E-6	-1.3400E-6	-1.3400E-6	-1.3400E-6	-1.3400E-6	  -19.8000	   26.2195	    1.2582	    0.0000	
  -50.0000	-1.4800E-6	-1.4800E-6	-1.4800E-6	-1.4800E-6	-1.4800E-6	  -19.8000	   26.2195	    1.2582	    0.0000	
  -60.0000	-1.6000E-6	-1.6000E-6	-1.6000E-6	-1.6000E-6	-1.6000E-6	  -19.8000	   26.2195	    1.2582	    0.0000	
  -70.0000	-1.7300E-6	-1.7300E-6	-1.7300E-6	-1.7300E-6	-1.7300E-6	  -19.8000	   26.2195	    1.2582	    0.0000	
  -80.0000	-1.8400E-6	-1.8400E-6	-1.8400E-6	-1.8400E-6	-1.8400E-6	  -19.8000	   26.2195	    1.2582	    0.0000	
  -90.0000	-1.9400E-6	-1.9400E-6	-1.9400E-6	-1.9400E-6	-1.9400E-6	  -19.8000	   26.2195	    1.2582	    0.0000	
 -100.0000	-2.0600E-6	-2.0600E-6	-2.0600E-6	-2.0600E-6	-2.0600E-6	  -19.8000	   26.2195	    1.2582	    0.0000	
 -110.0000	-2.1600E-6	-2.1600E-6	-2.1600E-6	-2.1600E-6	-2.1600E-6	  -19.8000	   26.2195	    1.2582	    0.0000	
 -120.0000	-2.2600E-6	-2.2600E-6	-2.2600E-6	-2.2600E-6	-2.2600E-6	  -19.8000	   26.2195	    1.2582	    0.0000	
 -130.0000	-2.3500E-6	-2.3500E-6	-2.3500E-6	-2.3500E-6	-2.3500E-6	  -19.8000	   26.2195	    1.2582	    0.0000	
 -140.0000	-2.4400E-6	-2.4400E-6	-2.4400E-6	-2.4400E-6	-2.4400E-6	  -19.8000	   26.2195	    1.2582	    0.0000	
 -150.0000	-2.5400E-6	-2.5400E-6	-2.5400E-6	-2.5400E-6	-2.5400E-6	  -19.8000	   26.2195	    1.2582	    0.0000	
 -160.0000	-2.6300E-6	-2.6300E-6	-2.6300E-6	-2.6300E-6	-2.6300E-6	  -19.8000	   26.2195	    1.2582	    0.0000	
 -170.0000	-2.7200E-6	-2.7200E-6	-2.7200E-6	-2.7200E-6	-2.7200E-6	  -19.8000	   26.2195	    1.2582	    0.0000	
 -180.0000	-2.8100E-6	-2.8100E-6	-2.8100E-6	-2.8100E-6	-2.8100E-6	  -19.8000	   26.2195	    1.2582	    0.0000	
 -190.0000	-2.9000E-6	-2.9000E-6	-2.9000E-6	-2.9000E-6	-2.9000E-6	  -19.8000	   26.2195	    1.2582	    0.0000	
 -200.0000	-2.9800E-6	-2.9800E-6	-2.9800E-6	-2.9800E-6	-2.9800E-6	  -19.8000	   26.2195	    1.2582	    0.0000	
 -210.0000	-3.0700E-6	-3.0700E-6	-3.0700E-6	-3.0700E-6	-3.0700E-6	  -19.8000	   26.2195	    1.2582	    0.0000	
 -220.0000	-3.1600E-6	-3.1600E-6	-3.1600E-6	-3.1600E-6	-3.1600E-6	  -19.8000	   26.2195	    1.2582	    0.0000	
 -230.0000	-3.2500E-6	-3.2500E-6	-3.2500E-6	-3.2500E-6	-3.2500E-6	  -19.8000	   26.2195	    1.2582	    0.0000	
 -240.0000	-3.3300E-6	-3.3300E-6	-3.3300E-6	-3.3300E-6	-3.3300E-6	  -19.8000	   26.2195	    1.2582	    0.0000	
 -250.0000	-3.4100E-6	-3.4100E-6	-3.4100E-6	-3.4100E-6	-3.4100E-6	  -19.8000	   26.2195	    1.2582	    0.0000	
 -260.0000	-3.4900E-6	-3.4900E-6	-3.4900E-6	-3.4900E-6	-3.4900E-6	  -19.8000	   26.2195	    1.2582	    0.0000	
 -270.0000	-3.5700E-6	-3.5700E-6	-3.5700E-6	-3.5700E-6	-3.5700E-6	  -19.8000	   26.2195	    1.2582	    0.0000	
 -280.0000	-3.6500E-6	-3.6500E-6	-3.6500E-6	-3.6500E-6	-3.6500E-6	  -19.8000	   26.2195	    1.2582	    0.0000	
 -290.0000	-3.7300E-6	-3.7300E-6	-3.7300E-6	-3.7300E-6	-3.7300E-6	  -19.8000	   26.2195	    1.2582	    0.0000	
 -300.0000	-3.8100E-6	-3.8100E-6	-3.8100E-6	-3.8100E-6	-3.8100E-6	  -19.8000	   26.2195	    1.2582	    0.0000	
 -310.0000	-3.8900E-6	-3.8900E-6	-3.8900E-6	-3.8900E-6	-3.8900E-6	  -19.8000	   26.2195	    1.2582	    0.0000	
 -320.0000	-3.9600E-6	-3.9600E-6	-3.9600E-6	-3.9600E-6	-3.9600E-6	  -19.8000	   26.2195	    1.2582	    0.0000	
 -330.0000	-4.0300E-6	-4.0300E-6	-4.0300E-6	-4.0300E-6	-4.0300E-6	  -19.8000	   26.2195	    1.2582	    0.0000	
 -340.0000	-4.1100E-6	-4.1100E-6	-4.1100E-6	-4.1100E-6	-4.1100E-6	  -19.8000	   26.2195	    1.2582	    0.0000	
 -350.0000	-4.1900E-6	-4.1900E-6	-4.1900E-6	-4.1900E-6	-4.1900E-6	  -19.8000	   26.2195	    1.2582	    0.0000	
 -360.0000	-4.2500E-6	-4.2500E-6	-4.2500E-6	-4.2500E-6	-4.2500E-6	  -19.8000	   26.2195	    1.2582	    0.0000	
 -370.0000	-4.3300E-6	-4.3300E-6	-4.3300E-6	-4.3300E-6	-4.3300E-6	  -19.8000	   26.2195	    1.2582	    0.0000	
 -380.0000	-4.4000E-6	-4.4000E-6	-4.4000E-6	-4.4000E-6	-4.4000E-6	  -19.8000	   26.2195	    1.2582	    0.0000	
 -390.0000	-4.4600E-6	-4.4600E-6	-4.4600E-6	-4.4600E-6	-4.4600E-6	  -19.8000	   26.2195	    1.2582	    0.0000	
 -400.0000	-4.5300E-6	-4.5300E-6	-4.5300E-6	-4.5300E-6	-4.5300E-6	  -19.8000	   26.2195	    1.2582	    0.0000	
 -410.0000	-4.6000E-6	-4.6000E-6	-4.6000E-6	-4.6000E-6	-4.6000E-6	  -19.8000	   26.2195	    1.2582	    0.0000	
 -420.0000	-4.6600E-6	-4.6600E-6	-4.6600E-6	-4.6600E-6	-4.6600E-6	  -19.8000	   26.2195	    1.2582	    0.0000	
 -430.0000	-4.7300E-6	-4.7300E-6	-4.7300E-6	-4.7300E-6	-4.7300E-6	  -19.8000	   26.2195	    1.2582	    0.0000	
 -440.0000	-4.8000E-6	-4.8000E-6	-4.8000E-6	-4.8000E-6	-4.8000E-6	  -19.8000	   26.2195	    1.2582	    0.0000	
 -450.0000	-4.8600E-6	-4.8600E-6	-4.8600E-6	-4.8600E-6	-4.8600E-6	  -19.8000	   26.2195	    1.2582	    0.0000	
 -460.0000	-4.9200E-6	-4.9200E-6	-4.9200E-6	-4.9200E-6	-4.9200E-6	  -19.8000	   26.2195	    1.2582	    0.0000	
 -470.0000	-4.9800E-6	-4.9800E-6	-4.9800E-6	-4.9800E-6	-4.9800E-6	  -19.8000	   26.2195	    1.2582	    0.0000	
 -480.0000	-5.0500E-6	-5.0500E-6	-5.0500E-6	-5.0500E-6	-5.0500E-6	  -19.8000	   26.2195	    1.2582	    0.0000	
 -490.0000	-5.1100E-6	-5.1100E-6	-5.1100E-6	-5.1100E-6	-5.1100E-6	  -19.8000	   26.2195	    1.2582	    0.0000	
 -500.0000	-5.1700E-6	-5.1700E-6	-5.1700E-6	-5.1700E-6	-5.1700E-6	  -19.8000	   26.2195	    1.2582	    0.0000	
 -510.0000	-5.2200E-6	-5.2200E-6	-5.2200E-6	-5.2200E-6	-5.2200E-6	  -19.8000	   26.2195	    1.2582	    0.0000	
 -520.0000	-5.2800E-6	-5.2800E-6	-5.2800E-6	-5.2800E-6	-5.2800E-6	  -19.8000	   26.2195	    1.2582	    0.0000	
 -530.0000	-5.3400E-6	-5.3400E-6	-5.3400E-6	-5.3400E-6	-5.3400E-6	  -19.8000	   26.2195	    1.2582	    0.0000	
 -540.0000	-5.3900E-6	-5.3900E-6	-5.3900E-6	-5.3900E-6	-5.3900E-6	  -19.8000	   26.2195	    1.2582	    0.0000	
 -550.0000	-5.4400E-6	-5.4400E-6	-5.4400E-6	-5.4400E-6	-5.4400E-6	  -19.8000	   26.2195	    1.2582	    0.0000	
 -560.0000	-5.5000E-6	-5.5000E-6	-5.5000E-6	-5.5000E-6	-5.5000E-6	  -19.8000	   26.2195	    1.2582	    0.0000	
 -570.0000	-5.5500E-6	-5.5500E-6	-5.5500E-6	-5.5500E-6	-5.5500E-6	  -19.8000	   26.2195	    1.2582	    0.0000	
 -580.0000	-5.6000E-6	-5.6000E-6	-5.6000E-6	-5.6000E-6	-5.6000E-6	  -19.8000	   26.2195	    1.2582	    0.0000	
 -590.0000	-5.6500E-6	-5.6500E-6	-5.6500E-6	-5.6500E-6	-5.6500E-6	  -19.8000	   26.2195	    1.2582	    0.0000	
 -600.0000	-5.7000E-6	-5.7000E-6	-5.7000E-6	-5.7000E-6	-5.7000E-6	  -19.8000	   26.2195	    1.2582	    0.0000	
 -610.0000	-5.7500E-6	-5.7500E-6	-5.7500E-6	-5.7500E-6	-5.7500E-6	  -19.8000	   26.2195	    1.2582	    0.0000	
 -620.0000	-5.8000E-6	-5.8000E-6	-5.8000E-6	-5.8000E-6	-5.8000E-6	  -19.8000	   26.2195	    1.2582	    0.0000	
 -630.0000	-5.8400E-6	-5.8400E-6	-5.8400E-6	-5.8400E-6	-5.8400E-6	  -19.8000	   26.2195	    1.2582	    0.0000	
 -640.0000	-5.8900E-6	-5.8900E-6	-5.8900E-6	-5.8900E-6	-5.8900E-6	  -19.8000	   26.2195	    1.2582	    0.0000	
 -650.0000	-5.9300E-6	-5.9300E-6	-5.9300E-6	-5.9300E-6	-5.9300E-6	  -19.8000	   26.2195	    1.2582	    0.0000	
 -660.0000	-5.9800E-6	-5.9800E-6	-5.9800E-6	-5.9800E-6	-5.9800E-6	  -19.8000	   26.2195	    1.2582	    0.0000	
 -670.0000	-6.0200E-6	-6.0200E-6	-6.0200E-6	-6.0200E-6	-6.0200E-6	  -19.8000	   26.2195	    1.2582	    0.0000	
 -680.0000	-6.0600E-6	-6.0600E-6	-6.0600E-6	-6.0600E-6	-6.0600E-6	  -19.8000	   26.2195	    1.2582	    0.0000	
 -690.0000	-6.1000E-6	-6.1000E-6	-6.1000E-6	-6.1000E-6	-6.1000E-6	  -19.8000	   26.2195	    1.2582	    0.0000	
 -700.0000	-6.1400E-6	-6.1400E-6	-6.1400E-6	-6.1400E-6	-6.1400E-6	  -19.8000	   26.2195	    1.2582	    0.0000	
 -710.0000	-6.1800E-6	-6.1800E-6	-6.1800E-6	-6.1800E-6	-6.1800E-6	  -19.8000	   26.2195	    1.2582	    0.0000	
 -720.0000	-6.2200E-6	-6.2200E-6	-6.2200E-6	-6.2200E-6	-6.2200E-6	  -19.8000	   26.2195	    1.2582	    0.0000	
 -730.0000	-6.2600E-6	-6.2600E-6	-6.2600E-6	-6.2600E-6	-6.2600E-6	  -19.8000	   26.2195	    1.2582	    0.0000	
 -740.0000	-6.3000E-6	-6.3000E-6	-6.3000E-6	-6.3000E-6	-6.3000E-6	  -19.8000	   26.2195	    1.2582	    0.0000	
 -750.0000	-6.3300E-6	-6.3300E-6	-6.3300E-6	-6.3300E-6	-6.3300E-6	  -19.8000	   26.2195	    1.2582	    0.0000	
 -760.0000	-6.3700E-6	-6.3700E-6	-6.3700E-6	-6.3700E-6	-6.3700E-6	  -19.8000	   26.2195	    1.2582	    0.0000	
 -770.0000	-6.4100E-6	-6.4100E-6	-6.4100E-6	-6.4100E-6	-6.4100E-6	  -19.8000	   26.2195	    1.2582	    0.0000	
 -780.0000	-6.4400E-6	-6.4400E-6	-6.4400E-6	-6.4400E-6	-6.4400E-6	  -19.8000	   26.2195	    1.2582	    0.0000	
 -790.0000	-6.4800E-6	-6.4800E-6	-6.4800E-6	-6.4800E-6	-6.4800E-6	  -19.8000	   26.2195	    1.2582	    0.0000	
 -800.0000	-6.5100E-6	-6.5100E-6	-6.5100E-6	-6.5100E-6	-6.5100E-6	  -19.8000	   26.2195	    1.2582	    0.0000	
 -810.0000	-6.5400E-6	-6.5400E-6	-6.5400E-6	-6.5400E-6	-6.5400E-6	  -19.8000	   26.2195	    1.2582	    0.0000	
 -820.0000	-6.5800E-6	-6.5800E-6	-6.5800E-6	-6.5800E-6	-6.5800E-6	  -19.8000	   26.2195	    1.2582	    0.0000	
 -830.0000	-6.6100E-6	-6.6100E-6	-6.6100E-6	-6.6100E-6	-6.6100E-6	  -19.8000	   26.2195	    1.2582	    0.0000	
 -840.0000	-6.6400E-6	-6.6400E-6	-6.6400E-6	-6.6400E-6	-6.6400E-6	  -19.8000	   26.2195	    1.2582	    0.0000	
 -850.0000	-6.6700E-6	-6.6700E-6	-6.6700E-6	-6.6700E-6	-6.6700E-6	  -19.8000	   26.2195	    1.2582	    0.0000	
 -860.0000	-6.7000E-6	-6.7000E-6	-6.7000E-6	-6.7000E-6	-6.7000E-6	  -19.8000	   26.2195	    1.2582	    0.0000	
 -870.0000	-6.7300E-6	-6.7300E-6	-6.7300E-6	-6.7300E-6	-6.7300E-6	  -19.8000	   26.2195	    1.2582	    0.0000	
 -880.0000	-6.7600E-6	-6.7600E-6	-6.7600E-6	-6.7600E-6	-6.7600E-6	  -19.8000	   26.2195	    1.2582	    0.0000	
 -890.0000	-6.7900E-6	-6.7900E-6	-6.7900E-6	-6.7900E-6	-6.7900E-6	  -19.8000	   26.2195	    1.2582	    0.0000	
 -900.0000	-6.8200E-6	-6.8200E-6	-6.8200E-6	-6.8200E-6	-6.8200E-6	  -19.8000	   26.2195	    1.2582	    0.0000	
 -910.0000	-6.8500E-6	-6.8500E-6	-6.8500E-6	-6.8500E-6	-6.8500E-6	  -19.8000	   26.2195	    1.2582	    0.0000	
 -920.0000	-6.8700E-6	-6.8700E-6	-6.8700E-6	-6.8700E-6	-6.8700E-6	  -19.8000	   26.2195	    1.2582	    0.0000	
 -930.0000	-6.9000E-6	-6.9000E-6	-6.9000E-6	-6.9000E-6	-6.9000E-6	  -19.8000	   26.2195	    1.2582	    0.0000	
 -940.0000	-6.9300E-6	-6.9300E-6	-6.9300E-6	-6.9300E-6	-6.9300E-6	  -19.8000	   26.2195	    1.2582	    0.0000	
 -950.0000	-6.9500E-6	-6.9500E-6	-6.9500E-6	-6.9500E-6	-6.9500E-6	  -19.8000	   26.2195	    1.2582	    0.0000	
 -960.0000	-6.9800E-6	-6.9800E-6	-6.9800E-6	-6.9800E-6	-6.9800E-6	  -19.8000	   26.2195	    1.2582	    0.0000	
 -970.0000	-7.0000E-6	-7.0000E-6	-7.0000E-6	-7.0000E-6	-7.0000E-6	  -19.8000	   26.2195	    1.2582	    0.0000	
 -980.0000	-7.0300E-6	-7.0300E-6	-7.0300E-6	-7.0300E-6	-7.0300E-6	  -19.8000	   26.2195	    1.2582	    0.0000	
 -990.0000	-7.0600E-6	-7.0600E-6	-7.0600E-6	-7.0600E-6	-7.0600E-6	  -19.8000	   26.2195	    1.2582	    0.0000	
-1000.0000	-7.0800E-6	-7.0800E-6	-7.0800E-6	-7.0800E-6	-7.0800E-6	  -19.8000	   26.2195	    1.2582	    0.0000	
