GCD Test
Bias: 5000.000000
IV_34340_007_PSS_HM_XX_DIODE_Irradiated
Date/Time: 7/2/2021 1:35:53 PM
Sensor Name: DIODE
Type: P
Annealing Status: Irradiated and Annealed
Environment: -20C
Tester: Andrew Kent

Time Delay per Ramp Step (s): 1.000

CV Time Delay per Measurement (s) :0.500

AC Voltage (V): 0.500

Current Number of measurements per voltage: 4.000

IV Time Delay per Measurement (s) :0.000


BiasVoltage	Total Current_Avg	Total Current_0	Total Current_1	Total Current_2	Total Current_3	Bias Current_Avg	Bias Current_0	Bias Current_1	Bias Current_2	Bias Current_3	Temperature	Air_Temp	Humidity	Dewpoint	
  -10.0000	-6.7063E-7	-6.7200E-7	-6.7280E-7	-6.7200E-7	-6.6570E-7	-6.746356E-7	-6.705650E-7	-6.729146E-7	-6.781301E-7	-6.769325E-7	  -20.1814	   12.9364	    4.9630	  -25.8873	
  -20.0000	-1.0568E-6	-1.0760E-6	-1.0580E-6	-1.0520E-6	-1.0410E-6	-1.042634E-6	-1.041912E-6	-1.035640E-6	-1.051729E-6	-1.041257E-6	  -20.1178	   12.9191	    4.9133	  -26.0096	
  -30.0000	-1.3178E-6	-1.3240E-6	-1.3210E-6	-1.3150E-6	-1.3110E-6	-1.294061E-6	-1.298627E-6	-1.292366E-6	-1.297756E-6	-1.287493E-6	  -20.0084	   12.7885	    4.8650	  -26.2109	
  -40.0000	-1.5240E-6	-1.5330E-6	-1.5310E-6	-1.5190E-6	-1.5130E-6	-1.515602E-6	-1.520737E-6	-1.518046E-6	-1.506748E-6	-1.516877E-6	  -19.9448	   12.7885	    4.8289	  -26.2919	
  -50.0000	-1.6940E-6	-1.7110E-6	-1.6940E-6	-1.6790E-6	-1.6920E-6	-1.658538E-6	-1.684283E-6	-1.656876E-6	-1.638178E-6	-1.654814E-6	  -19.8354	   12.7773	    4.7846	  -26.4002	
  -60.0000	-1.8533E-6	-1.8670E-6	-1.8590E-6	-1.8430E-6	-1.8440E-6	-1.825494E-6	-1.844688E-6	-1.834684E-6	-1.817546E-6	-1.805058E-6	  -19.7998	   12.7527	    4.7638	  -26.4653	
  -70.0000	-1.9582E-6	-1.9750E-6	-1.9650E-6	-1.9390E-6	-1.9540E-6	-1.948299E-6	-1.951785E-6	-1.944166E-6	-1.958572E-6	-1.938672E-6	  -19.7337	   12.7918	    4.7283	  -26.5186	
  -80.0000	-2.0890E-6	-2.1030E-6	-2.1030E-6	-2.0650E-6	-2.0850E-6	-2.080352E-6	-2.080449E-6	-2.086947E-6	-2.063610E-6	-2.090401E-6	  -19.6955	   12.7364	    4.7144	  -26.5901	
  -90.0000	-2.2085E-6	-2.2170E-6	-2.1950E-6	-2.2130E-6	-2.2090E-6	-2.163499E-6	-2.152276E-6	-2.166455E-6	-2.157009E-6	-2.178256E-6	  -19.6675	   12.7458	    4.6980	  -26.6213	
 -100.0000	-2.2855E-6	-2.3170E-6	-2.3000E-6	-2.2720E-6	-2.2530E-6	-2.260890E-6	-2.240564E-6	-2.278243E-6	-2.256532E-6	-2.268222E-6	  -19.6116	   12.8015	    4.6584	  -26.6735	
 -110.0000	-2.3623E-6	-2.3770E-6	-2.3660E-6	-2.3660E-6	-2.3400E-6	-2.338229E-6	-2.339097E-6	-2.335972E-6	-2.351409E-6	-2.326439E-6	  -19.6090	   12.8015	    4.6417	  -26.7126	
 -120.0000	-2.4185E-6	-2.4400E-6	-2.4220E-6	-2.4060E-6	-2.4060E-6	-2.392931E-6	-2.404852E-6	-2.415811E-6	-2.380062E-6	-2.370999E-6	  -19.5938	   12.7646	    4.6116	  -26.8092	
 -130.0000	-2.4595E-6	-2.4830E-6	-2.4700E-6	-2.4440E-6	-2.4410E-6	-2.449943E-6	-2.427595E-6	-2.454814E-6	-2.448183E-6	-2.469181E-6	  -19.6014	   12.7692	    4.5781	  -26.8850	
 -140.0000	-2.5385E-6	-2.5580E-6	-2.5280E-6	-2.5340E-6	-2.5340E-6	-2.514932E-6	-2.540369E-6	-2.523338E-6	-2.510419E-6	-2.485601E-6	  -19.5836	   12.7454	    4.5386	  -26.9958	
 -150.0000	-2.5940E-6	-2.6260E-6	-2.5820E-6	-2.5830E-6	-2.5850E-6	-2.569768E-6	-2.602529E-6	-2.586016E-6	-2.539422E-6	-2.551105E-6	  -19.5988	   12.7454	    4.5259	  -27.0260	
 -160.0000	-2.6572E-6	-2.6780E-6	-2.6550E-6	-2.6520E-6	-2.6440E-6	-2.629702E-6	-2.641745E-6	-2.626509E-6	-2.625844E-6	-2.624710E-6	  -19.6192	   12.7394	    4.4991	  -27.0947	
 -170.0000	-2.6900E-6	-2.6990E-6	-2.6900E-6	-2.6910E-6	-2.6800E-6	-2.658915E-6	-2.676791E-6	-2.658455E-6	-2.656414E-6	-2.644001E-6	  -19.6777	   12.7220	    4.4731	  -27.1695	
 -180.0000	-2.7633E-6	-2.7490E-6	-2.7540E-6	-2.7460E-6	-2.8040E-6	-2.849074E-6	-2.914114E-6	-2.813108E-6	-2.865247E-6	-2.803828E-6	  -19.7031	   12.6731	    4.4526	  -27.2538	
 -190.0000	-3.0043E-6	-3.0260E-6	-3.0180E-6	-2.9790E-6	-2.9940E-6	-2.946700E-6	-2.936727E-6	-2.938831E-6	-2.954963E-6	-2.956278E-6	  -19.7438	   12.7052	    4.4352	  -27.2734	
 -200.0000	-3.0995E-6	-3.0930E-6	-3.1180E-6	-3.1040E-6	-3.0830E-6	-3.095328E-6	-3.127106E-6	-3.084126E-6	-3.102115E-6	-3.067964E-6	  -19.7998	   12.7170	    4.4241	  -27.2919	
 -210.0000	-3.1325E-6	-3.1410E-6	-3.1600E-6	-3.0990E-6	-3.1300E-6	-3.152423E-6	-3.161075E-6	-3.159269E-6	-3.141238E-6	-3.148110E-6	  -19.8659	   12.6991	    4.4133	  -27.3309	
 -220.0000	-3.2557E-6	-3.2400E-6	-3.2620E-6	-3.2540E-6	-3.2670E-6	-3.232759E-6	-3.259541E-6	-3.225874E-6	-3.202738E-6	-3.242882E-6	  -19.9041	   12.6782	    4.3928	  -27.3960	
 -230.0000	-3.3260E-6	-3.3400E-6	-3.2980E-6	-3.3280E-6	-3.3380E-6	-3.412844E-6	-3.379099E-6	-3.425361E-6	-3.432811E-6	-3.414107E-6	  -19.9448	   12.6419	    4.3631	  -27.4948	
 -240.0000	-3.4955E-6	-3.5080E-6	-3.5090E-6	-3.5060E-6	-3.4590E-6	-3.480000E-6	-3.491419E-6	-3.463321E-6	-3.482100E-6	-3.483158E-6	  -19.9957	   12.7013	    4.3314	  -27.5312	
 -250.0000	-3.5202E-6	-3.5100E-6	-3.5480E-6	-3.5410E-6	-3.4820E-6	-3.491183E-6	-3.514899E-6	-3.486592E-6	-3.479291E-6	-3.483952E-6	  -20.0262	   12.6858	    4.2985	  -27.6242	
 -260.0000	-3.6200E-6	-3.6390E-6	-3.6210E-6	-3.5990E-6	-3.6210E-6	-3.573639E-6	-3.630424E-6	-3.593030E-6	-3.541885E-6	-3.529217E-6	  -20.0593	   12.6418	    4.2698	  -27.7274	
 -270.0000	-3.6935E-6	-3.7390E-6	-3.7150E-6	-3.6630E-6	-3.6570E-6	-3.647801E-6	-3.639230E-6	-3.631611E-6	-3.659765E-6	-3.660599E-6	  -20.0898	   12.6333	    4.2378	  -27.8141	
 -280.0000	-3.7570E-6	-3.7180E-6	-3.7620E-6	-3.7850E-6	-3.7630E-6	-3.768325E-6	-3.731269E-6	-3.801138E-6	-3.767607E-6	-3.773285E-6	  -20.1534	   12.6891	    4.2113	  -27.8423	
 -290.0000	-3.8250E-6	-3.7960E-6	-3.8320E-6	-3.8280E-6	-3.8440E-6	-3.821865E-6	-3.839755E-6	-3.827907E-6	-3.833798E-6	-3.786001E-6	  -20.1585	   12.6698	    4.1961	  -27.8947	
 -300.0000	-3.9673E-6	-3.9460E-6	-3.9870E-6	-3.9730E-6	-3.9630E-6	-3.942808E-6	-3.953016E-6	-3.972643E-6	-3.952516E-6	-3.893059E-6	  -20.1737	   12.6684	    4.1888	  -27.9143	
 -310.0000	-3.9878E-6	-3.9980E-6	-3.9860E-6	-4.0020E-6	-3.9650E-6	-3.972985E-6	-3.987617E-6	-4.009963E-6	-3.962932E-6	-3.931429E-6	  -20.1992	   12.7147	    4.1648	  -27.9434	
 -320.0000	-4.0642E-6	-4.0260E-6	-4.0550E-6	-4.0710E-6	-4.1050E-6	-4.094026E-6	-4.105164E-6	-4.098639E-6	-4.114777E-6	-4.057524E-6	  -20.2271	   12.6992	    4.1635	  -27.9576	
 -330.0000	-4.1695E-6	-4.1650E-6	-4.1640E-6	-4.1550E-6	-4.1940E-6	-4.181827E-6	-4.192595E-6	-4.210359E-6	-4.155093E-6	-4.169260E-6	  -20.2170	   12.6691	    4.1382	  -28.0441	
 -340.0000	-4.2533E-6	-4.2560E-6	-4.2540E-6	-4.2640E-6	-4.2390E-6	-4.227124E-6	-4.221424E-6	-4.295986E-6	-4.201131E-6	-4.189954E-6	  -20.2246	   12.6347	    4.1306	  -28.0879	
 -350.0000	-4.3208E-6	-4.3270E-6	-4.3260E-6	-4.3130E-6	-4.3170E-6	-4.312545E-6	-4.313478E-6	-4.307389E-6	-4.330707E-6	-4.298605E-6	  -20.2221	   12.5932	    4.0987	  -28.2001	
 -360.0000	-4.4163E-6	-4.3800E-6	-4.4320E-6	-4.4410E-6	-4.4120E-6	-4.376709E-6	-4.377903E-6	-4.338438E-6	-4.399924E-6	-4.390571E-6	  -20.2119	   12.5827	    4.0844	  -28.2447	
 -370.0000	-4.4205E-6	-4.4340E-6	-4.4050E-6	-4.4140E-6	-4.4290E-6	-4.422031E-6	-4.447017E-6	-4.406885E-6	-4.397902E-6	-4.436321E-6	  -20.2119	   12.6083	    4.0569	  -28.2990	
 -380.0000	-4.5495E-6	-4.4830E-6	-4.5480E-6	-4.5900E-6	-4.5770E-6	-4.482617E-6	-4.534796E-6	-4.515285E-6	-4.448365E-6	-4.432023E-6	  -20.1941	   12.5944	    4.0373	  -28.3605	
 -390.0000	-4.5978E-6	-4.6010E-6	-4.5830E-6	-4.6050E-6	-4.6020E-6	-4.623694E-6	-4.620838E-6	-4.630842E-6	-4.643659E-6	-4.599435E-6	  -20.1737	   12.5759	    4.0285	  -28.3969	
 -400.0000	-4.6525E-6	-4.6290E-6	-4.6670E-6	-4.6780E-6	-4.6360E-6	-4.728667E-6	-4.715547E-6	-4.715324E-6	-4.766991E-6	-4.716805E-6	  -20.1686	   12.5993	    4.0111	  -28.4267	
 -410.0000	-4.7440E-6	-4.7260E-6	-4.7550E-6	-4.7140E-6	-4.7810E-6	-4.762692E-6	-4.787270E-6	-4.711885E-6	-4.773219E-6	-4.778394E-6	  -20.1585	   12.5495	    3.9915	  -28.5139	
 -420.0000	-4.8578E-6	-4.8390E-6	-4.8830E-6	-4.8790E-6	-4.8300E-6	-4.842722E-6	-4.823119E-6	-4.847846E-6	-4.862587E-6	-4.837334E-6	  -20.1229	   12.5618	    3.9839	  -28.5256	
 -430.0000	-4.8288E-6	-4.8540E-6	-4.7790E-6	-4.8370E-6	-4.8450E-6	-4.828034E-6	-4.851912E-6	-4.809645E-6	-4.841554E-6	-4.809026E-6	  -20.0847	   12.5866	    3.9614	  -28.5685	
 -440.0000	-4.8798E-6	-4.8780E-6	-4.8870E-6	-4.8680E-6	-4.8860E-6	-4.942780E-6	-4.903065E-6	-4.921293E-6	-4.947049E-6	-4.999714E-6	  -20.0745	   12.5866	    3.9636	  -28.5625	
 -450.0000	-5.0158E-6	-5.0160E-6	-4.9960E-6	-5.0100E-6	-5.0410E-6	-5.057528E-6	-5.026805E-6	-5.083162E-6	-5.052492E-6	-5.067651E-6	  -20.0516	   12.5866	    3.9681	  -28.5506	
 -460.0000	-5.0892E-6	-5.0650E-6	-5.0900E-6	-5.0940E-6	-5.1080E-6	-5.121548E-6	-5.141605E-6	-5.132211E-6	-5.080542E-6	-5.131833E-6	  -20.0160	   12.5133	    3.9769	  -28.5782	
 -470.0000	-5.1145E-6	-5.1400E-6	-5.0890E-6	-5.1200E-6	-5.1090E-6	-5.118551E-6	-5.144244E-6	-5.143644E-6	-5.083519E-6	-5.102799E-6	  -19.9931	   12.5752	    3.9620	  -28.5748	
 -480.0000	-5.1780E-6	-5.1660E-6	-5.1800E-6	-5.1900E-6	-5.1760E-6	-5.128457E-6	-5.106077E-6	-5.156436E-6	-5.147650E-6	-5.103664E-6	  -19.9779	   12.5759	    3.9614	  -28.5760	
 -490.0000	-5.1870E-6	-5.1430E-6	-5.1390E-6	-5.2160E-6	-5.2500E-6	-5.256630E-6	-5.242135E-6	-5.256975E-6	-5.280256E-6	-5.247155E-6	  -19.9652	   12.4884	    3.9636	  -28.6313	
 -500.0000	-5.2547E-6	-5.2690E-6	-5.2810E-6	-5.2260E-6	-5.2430E-6	-5.300655E-6	-5.285166E-6	-5.315234E-6	-5.282369E-6	-5.319849E-6	  -19.9448	   12.5077	    3.9570	  -28.6356	
 -510.0000	-5.3565E-6	-5.3280E-6	-5.3130E-6	-5.4000E-6	-5.3850E-6	-5.357401E-6	-5.382542E-6	-5.333202E-6	-5.322048E-6	-5.391812E-6	  -19.9397	   12.4778	    3.9383	  -28.7069	
 -520.0000	-5.3702E-6	-5.4170E-6	-5.3730E-6	-5.3470E-6	-5.3440E-6	-5.360678E-6	-5.354460E-6	-5.314432E-6	-5.414327E-6	-5.359491E-6	  -19.9245	   12.4584	    3.9333	  -28.7341	
 -530.0000	-5.4538E-6	-5.4290E-6	-5.4520E-6	-5.4760E-6	-5.4580E-6	-5.428280E-6	-5.452840E-6	-5.461540E-6	-5.406290E-6	-5.392451E-6	  -19.9092	   12.5427	    3.9314	  -28.6803	
 -540.0000	-5.4555E-6	-5.4460E-6	-5.4330E-6	-5.4570E-6	-5.4860E-6	-5.415830E-6	-5.471919E-6	-5.429856E-6	-5.380188E-6	-5.381356E-6	  -19.8965	   12.5120	    3.9434	  -28.6692	
 -550.0000	-5.4772E-6	-5.4790E-6	-5.4850E-6	-5.4690E-6	-5.4760E-6	-5.497676E-6	-5.522547E-6	-5.509286E-6	-5.494343E-6	-5.464530E-6	  -19.8736	   12.5587	    3.9345	  -28.6606	
 -560.0000	-5.5645E-6	-5.5550E-6	-5.5400E-6	-5.5570E-6	-5.6060E-6	-5.590956E-6	-5.587748E-6	-5.601022E-6	-5.589413E-6	-5.585641E-6	  -19.8659	   12.5375	    3.9326	  -28.6805	
 -570.0000	-5.6100E-6	-5.5830E-6	-5.5910E-6	-5.6410E-6	-5.6250E-6	-5.603181E-6	-5.607175E-6	-5.561859E-6	-5.615855E-6	-5.627836E-6	  -19.8710	   12.4971	    3.9285	  -28.7199	
 -580.0000	-5.6548E-6	-5.6370E-6	-5.6830E-6	-5.6630E-6	-5.6360E-6	-5.626716E-6	-5.607791E-6	-5.658528E-6	-5.585474E-6	-5.655072E-6	  -19.8710	   12.4857	    3.9285	  -28.7279	
 -590.0000	-5.6068E-6	-5.6520E-6	-5.6070E-6	-5.6080E-6	-5.5600E-6	-5.634745E-6	-5.648086E-6	-5.596839E-6	-5.589617E-6	-5.704439E-6	  -19.8812	   12.5540	    3.9045	  -28.7455	
 -600.0000	-5.6278E-6	-5.6090E-6	-5.6590E-6	-5.5950E-6	-5.6480E-6	-5.706202E-6	-5.715267E-6	-5.712916E-6	-5.726282E-6	-5.670343E-6	  -19.8914	   12.5557	    3.8997	  -28.7572	
 -610.0000	-5.7098E-6	-5.7780E-6	-5.7730E-6	-5.6380E-6	-5.6500E-6	-5.694715E-6	-5.661076E-6	-5.708051E-6	-5.681245E-6	-5.728487E-6	  -19.8965	   12.5702	    3.8972	  -28.7540	
 -620.0000	-5.6933E-6	-5.7090E-6	-5.6450E-6	-5.6740E-6	-5.7450E-6	-5.724445E-6	-5.724251E-6	-5.768362E-6	-5.711939E-6	-5.693227E-6	  -19.8965	   12.5869	    3.8833	  -28.7804	
 -630.0000	-5.7032E-6	-5.6710E-6	-5.7230E-6	-5.6750E-6	-5.7440E-6	-5.830550E-6	-5.839182E-6	-5.802834E-6	-5.863744E-6	-5.816440E-6	  -19.9245	   12.5052	    3.8583	  -28.9061	
 -640.0000	-5.7632E-6	-5.7800E-6	-5.7370E-6	-5.7530E-6	-5.7830E-6	-5.805224E-6	-5.764889E-6	-5.820559E-6	-5.820306E-6	-5.815143E-6	  -19.9372	   12.4551	    3.8412	  -28.9881	
 -650.0000	-5.7758E-6	-5.7360E-6	-5.8060E-6	-5.7830E-6	-5.7780E-6	-5.758013E-6	-5.731091E-6	-5.725068E-6	-5.812047E-6	-5.763847E-6	  -19.9448	   12.4578	    3.8336	  -29.0073	
 -660.0000	-5.7583E-6	-5.7550E-6	-5.7740E-6	-5.7540E-6	-5.7500E-6	-5.752282E-6	-5.748310E-6	-5.769168E-6	-5.761021E-6	-5.730628E-6	  -19.9652	   12.4260	    3.8099	  -29.0952	
 -670.0000	-5.8237E-6	-5.8750E-6	-5.8050E-6	-5.7560E-6	-5.8590E-6	-5.831027E-6	-5.809439E-6	-5.851730E-6	-5.824358E-6	-5.838583E-6	  -19.9804	   12.4638	    3.7951	  -29.1104	
 -680.0000	-5.8378E-6	-5.8360E-6	-5.8350E-6	-5.8580E-6	-5.8220E-6	-5.839668E-6	-5.791381E-6	-5.811625E-6	-5.911374E-6	-5.844293E-6	  -19.9982	   12.4355	    3.7824	  -29.1655	
 -690.0000	-5.8832E-6	-5.8650E-6	-5.9090E-6	-5.8640E-6	-5.8950E-6	-5.861677E-6	-5.830205E-6	-5.888565E-6	-5.905236E-6	-5.822702E-6	  -20.0033	   12.4355	    3.7638	  -29.2179	
 -700.0000	-5.9352E-6	-5.8930E-6	-5.9460E-6	-5.9410E-6	-5.9610E-6	-5.906092E-6	-5.978992E-6	-5.895369E-6	-5.872073E-6	-5.877934E-6	  -20.0287	   12.4497	    3.7808	  -29.1600	
 -710.0000	-5.9283E-6	-5.9250E-6	-5.9640E-6	-5.8790E-6	-5.9450E-6	-5.920971E-6	-6.009265E-6	-5.905517E-6	-5.873650E-6	-5.895453E-6	  -20.0465	   12.4174	    3.7834	  -29.1755	
 -720.0000	-5.9543E-6	-5.9930E-6	-5.9790E-6	-5.9220E-6	-5.9230E-6	-5.900606E-6	-5.863395E-6	-5.876759E-6	-5.920681E-6	-5.941590E-6	  -20.0593	   12.4370	    3.7834	  -29.1618	
 -730.0000	-5.9520E-6	-5.9830E-6	-5.9760E-6	-5.9260E-6	-5.9230E-6	-5.922661E-6	-5.922896E-6	-5.885287E-6	-5.920877E-6	-5.961584E-6	  -20.0542	   12.4370	    3.7884	  -29.1477	
 -740.0000	-5.9997E-6	-5.9720E-6	-5.9810E-6	-6.0280E-6	-6.0180E-6	-6.029121E-6	-6.041405E-6	-6.034762E-6	-6.033307E-6	-6.007009E-6	  -20.0669	   12.4532	    3.7755	  -29.1727	
 -750.0000	-5.9990E-6	-5.9960E-6	-6.0350E-6	-5.9820E-6	-5.9830E-6	-5.976910E-6	-6.025268E-6	-5.941540E-6	-5.967144E-6	-5.973689E-6	  -20.0593	   12.4075	    3.7704	  -29.2187	
 -760.0000	-6.0630E-6	-6.0160E-6	-6.0760E-6	-6.0800E-6	-6.0800E-6	-6.011190E-6	-6.058254E-6	-6.040324E-6	-5.977463E-6	-5.968721E-6	  -20.0567	   12.4414	    3.7603	  -29.2236	
 -770.0000	-6.1035E-6	-6.0740E-6	-6.0870E-6	-6.1160E-6	-6.1370E-6	-6.085837E-6	-6.110868E-6	-6.061701E-6	-6.058072E-6	-6.112707E-6	  -20.0593	   12.4414	    3.7514	  -29.2486	
 -780.0000	-6.1595E-6	-6.1650E-6	-6.1650E-6	-6.1620E-6	-6.1460E-6	-6.155403E-6	-6.151527E-6	-6.148558E-6	-6.179383E-6	-6.142143E-6	  -20.0618	   12.4525	    3.7413	  -29.2694	
 -790.0000	-6.0930E-6	-6.0720E-6	-6.0950E-6	-6.0960E-6	-6.1090E-6	-6.173868E-6	-6.161006E-6	-6.179109E-6	-6.162480E-6	-6.192878E-6	  -20.0593	   12.4926	    3.7293	  -29.2757	
 -800.0000	-6.1307E-6	-6.1290E-6	-6.1020E-6	-6.1280E-6	-6.1640E-6	-6.182329E-6	-6.205169E-6	-6.212905E-6	-6.157186E-6	-6.154055E-6	  -20.0516	   12.4873	    3.7059	  -29.3460	
 -810.0000	-6.1478E-6	-6.1530E-6	-6.1660E-6	-6.1500E-6	-6.1220E-6	-6.125086E-6	-6.084183E-6	-6.151175E-6	-6.146465E-6	-6.118522E-6	  -20.0338	   12.4873	    3.7084	  -29.3388	
 -820.0000	-6.1800E-6	-6.1990E-6	-6.1730E-6	-6.1690E-6	-6.1790E-6	-6.187442E-6	-6.181755E-6	-6.219996E-6	-6.183335E-6	-6.164681E-6	  -20.0491	   12.5037	    3.6920	  -29.3744	
 -830.0000	-6.2610E-6	-6.2170E-6	-6.2950E-6	-6.2920E-6	-6.2400E-6	-6.271322E-6	-6.256906E-6	-6.305243E-6	-6.262156E-6	-6.260981E-6	  -20.0415	   12.4960	    3.6910	  -29.3825	
 -840.0000	-6.2555E-6	-6.2900E-6	-6.2620E-6	-6.2260E-6	-6.2440E-6	-6.243008E-6	-6.239829E-6	-6.201576E-6	-6.224793E-6	-6.305834E-6	  -20.0415	   12.4001	    3.6648	  -29.5245	
 -850.0000	-6.2960E-6	-6.2320E-6	-6.2920E-6	-6.3060E-6	-6.3540E-6	-6.362037E-6	-6.379273E-6	-6.371879E-6	-6.384637E-6	-6.312360E-6	  -20.0364	   12.4001	    3.6698	  -29.5099	
 -860.0000	-6.3465E-6	-6.2660E-6	-6.3360E-6	-6.3920E-6	-6.3920E-6	-6.309539E-6	-6.328858E-6	-6.356360E-6	-6.325330E-6	-6.227608E-6	  -20.0313	   12.3952	    3.6490	  -29.5736	
 -870.0000	-6.4008E-6	-6.3670E-6	-6.3700E-6	-6.3960E-6	-6.4700E-6	-6.357048E-6	-6.442909E-6	-6.311981E-6	-6.318148E-6	-6.355154E-6	  -20.0313	   12.4330	    3.6458	  -29.5565	
 -880.0000	-6.3720E-6	-6.4120E-6	-6.4060E-6	-6.3570E-6	-6.3130E-6	-6.406108E-6	-6.392002E-6	-6.407248E-6	-6.352665E-6	-6.472515E-6	  -20.0211	   12.3280	    3.6404	  -29.6449	
 -890.0000	-6.4160E-6	-6.4170E-6	-6.4670E-6	-6.4210E-6	-6.3590E-6	-6.362060E-6	-6.352099E-6	-6.375936E-6	-6.348721E-6	-6.371486E-6	  -20.0084	   12.3280	    3.6373	  -29.6541	
 -900.0000	-6.4770E-6	-6.4450E-6	-6.5130E-6	-6.4820E-6	-6.4680E-6	-6.440777E-6	-6.467057E-6	-6.402861E-6	-6.436173E-6	-6.457016E-6	  -20.0109	   12.3484	    3.6325	  -29.6537	
 -910.0000	-6.4865E-6	-6.4930E-6	-6.5060E-6	-6.5130E-6	-6.4340E-6	-6.447248E-6	-6.459918E-6	-6.448846E-6	-6.408086E-6	-6.472144E-6	  -20.0084	   12.4449	    3.6224	  -29.6162	
 -920.0000	-6.4947E-6	-6.5110E-6	-6.5170E-6	-6.4590E-6	-6.4920E-6	-6.495988E-6	-6.535784E-6	-6.510860E-6	-6.465144E-6	-6.472164E-6	  -19.9880	   12.4079	    3.6129	  -29.6696	
 -930.0000	-6.4930E-6	-6.4550E-6	-6.4600E-6	-6.5430E-6	-6.5140E-6	-6.473869E-6	-6.470168E-6	-6.464796E-6	-6.466733E-6	-6.493780E-6	  -19.9779	   12.4079	    3.6167	  -29.6585	
 -940.0000	-6.5270E-6	-6.5160E-6	-6.5330E-6	-6.5190E-6	-6.5400E-6	-6.549757E-6	-6.487647E-6	-6.537395E-6	-6.587897E-6	-6.586090E-6	  -20.0033	   12.3852	    3.6078	  -29.7001	
 -950.0000	-6.5652E-6	-6.5430E-6	-6.5060E-6	-6.6110E-6	-6.6010E-6	-6.594527E-6	-6.593407E-6	-6.572409E-6	-6.587818E-6	-6.624474E-6	  -20.0033	   12.3093	    3.6148	  -29.7324	
 -960.0000	-6.6095E-6	-6.6110E-6	-6.6920E-6	-6.5520E-6	-6.5830E-6	-6.632237E-6	-6.645578E-6	-6.625294E-6	-6.648382E-6	-6.609696E-6	  -19.9957	   12.3284	    3.6145	  -29.7201	
 -970.0000	-6.5988E-6	-6.5860E-6	-6.6620E-6	-6.6170E-6	-6.5300E-6	-6.548675E-6	-6.489225E-6	-6.529613E-6	-6.548769E-6	-6.627095E-6	  -19.9957	   12.3769	    3.6047	  -29.7151	
 -980.0000	-6.6235E-6	-6.6020E-6	-6.6240E-6	-6.6140E-6	-6.6540E-6	-6.665449E-6	-6.615214E-6	-6.614586E-6	-6.734229E-6	-6.697768E-6	  -20.0084	   12.2282	    3.6094	  -29.8043	
 -990.0000	-6.6575E-6	-6.7050E-6	-6.6490E-6	-6.6260E-6	-6.6500E-6	-6.649534E-6	-6.557848E-6	-6.592517E-6	-6.680854E-6	-6.766916E-6	  -19.9830	   12.2468	    3.6142	  -29.7776	
-1000.0000	-6.6610E-6	-6.6500E-6	-6.6290E-6	-6.6470E-6	-6.7180E-6	-6.688383E-6	-6.665317E-6	-6.627820E-6	-6.708076E-6	-6.752320E-6	  -19.9982	   12.2807	    3.6167	  -29.7467	
