GCD Test
Bias: 5000.000000
CV_37399_049_PSS_HM_XX_DIODEHALFPSTOP
Date/Time: 11/3/2021 7:06:11 PM
Sensor Name: DIODEHALFPSTOP
Type: P
Annealing Status: Not Irradiated and Not Annealed
Environment: 20C
Tester: Andrew Kent

Time Delay per Ramp Step (s): 0.500

CV Time Delay per Measurement (s) :0.500

AC Voltage (V): 0.500

Current Number of measurements per voltage: 1.000

IV Time Delay per Measurement (s) :0.000


BiasVoltage	LCR_Cp_freqNaN	LCR_Rp_freqNaN	Temperature	Air_Temp	Humidity	Dewpoint	
   -5.0000	-1.170E-12	1.004E+10	   20.0090	   21.3699	    6.6063	  -16.5281	
  -10.0000	-1.173E-12	1.093E+10	   20.0090	   21.3699	    6.6063	  -16.5281	
  -15.0000	-1.173E-12	1.081E+10	   20.0116	   21.3733	    6.6145	  -16.5107	
  -20.0000	-1.170E-12	1.034E+10	   20.0090	   21.3704	    6.6088	  -16.5232	
  -25.0000	-1.171E-12	9.724E+9	   20.0039	   21.3698	    6.6113	  -16.5190	
  -30.0000	-1.172E-12	1.135E+10	   19.9987	   21.3637	    6.6082	  -16.5292	
  -35.0000	-1.173E-12	1.127E+10	   19.9961	   21.3711	    6.6123	  -16.5163	
  -40.0000	-1.171E-12	8.120E+9	   19.9936	   21.3697	    6.6078	  -16.5253	
  -45.0000	-1.173E-12	8.809E+9	   19.9910	   21.3686	    6.6003	  -16.5399	
  -50.0000	-1.172E-12	1.074E+10	   19.9936	   21.3665	    6.6091	  -16.5254	
  -55.0000	-1.172E-12	8.056E+9	   19.9936	   21.3668	    6.6148	  -16.5149	
  -60.0000	-1.171E-12	1.035E+10	   19.9961	   21.3674	    6.6063	  -16.5299	
  -65.0000	-1.172E-12	9.019E+9	   20.0013	   21.3614	    6.6088	  -16.5297	
  -70.0000	-1.170E-12	9.993E+9	   20.0039	   21.3623	    6.6034	  -16.5388	
  -75.0000	-1.171E-12	1.007E+10	   20.0064	   21.3592	    6.6120	  -16.5256	
  -80.0000	-1.171E-12	1.046E+10	   20.0116	   21.3665	    6.6129	  -16.5185	
  -85.0000	-1.173E-12	1.064E+10	   20.0116	   21.3619	    6.6132	  -16.5213	
  -90.0000	-1.172E-12	9.322E+9	   20.0116	   21.3591	    6.6082	  -16.5326	
  -95.0000	-1.172E-12	9.801E+9	   20.0116	   21.3661	    6.6078	  -16.5280	
 -100.0000	-1.171E-12	8.750E+9	   20.0090	   21.3658	    6.6078	  -16.5282	
 -105.0000	-1.172E-12	9.723E+9	   20.0064	   21.3631	    6.6113	  -16.5239	
 -110.0000	-1.176E-12	9.953E+9	   20.0013	   21.3622	    6.5977	  -16.5491	
 -115.0000	-1.170E-12	1.101E+10	   19.9987	   21.3659	    6.6063	  -16.5310	
 -120.0000	-1.170E-12	1.308E+10	   19.9936	   21.3591	    6.6018	  -16.5439	
 -125.0000	-1.169E-12	1.131E+10	   19.9936	   21.3591	    6.6018	  -16.5439	
 -130.0000	-1.170E-12	1.234E+10	   19.9910	   21.3623	    6.6050	  -16.5359	
 -135.0000	-1.169E-12	1.023E+10	   19.9910	   21.3649	    6.6063	  -16.5317	
 -140.0000	-1.170E-12	1.172E+10	   19.9961	   21.3624	    6.5993	  -16.5461	
 -145.0000	-1.171E-12	1.336E+10	   20.0013	   21.3616	    6.6091	  -16.5290	
 -150.0000	-1.170E-12	1.241E+10	   20.0090	   21.3616	    6.5974	  -16.5501	
 -155.0000	-1.167E-12	1.147E+10	   20.0142	   21.3616	    6.5974	  -16.5501	
 -160.0000	-1.169E-12	1.118E+10	   20.0142	   21.3628	    6.6097	  -16.5270	
 -165.0000	-1.172E-12	9.208E+9	   20.0167	   21.3554	    6.6161	  -16.5210	
 -170.0000	-1.169E-12	1.147E+10	   20.0167	   21.3661	    6.6110	  -16.5223	
 -175.0000	-1.171E-12	1.289E+10	   20.0142	   21.3599	    6.5965	  -16.5531	
 -180.0000	-1.167E-12	9.879E+9	   20.0090	   21.3592	    6.6040	  -16.5398	
 -185.0000	-1.173E-12	1.278E+10	   20.0064	   21.3582	    6.6018	  -16.5446	
 -190.0000	-1.169E-12	9.704E+9	   20.0013	   21.3606	    6.6075	  -16.5326	
 -195.0000	-1.171E-12	1.196E+10	   19.9987	   21.3640	    6.6047	  -16.5352	
 -200.0000	-1.169E-12	1.422E+10	   19.9961	   21.3601	    6.6003	  -16.5461	
 -205.0000	-1.171E-12	1.621E+10	   19.9961	   21.3611	    6.5949	  -16.5551	
 -210.0000	-1.171E-12	9.225E+9	   19.9987	   21.3631	    6.6006	  -16.5433	
 -215.0000	-1.169E-12	1.124E+10	   19.9987	   21.3655	    6.6037	  -16.5358	
 -220.0000	-1.170E-12	1.183E+10	   20.0039	   21.3633	    6.5974	  -16.5489	
 -225.0000	-1.168E-12	1.071E+10	   20.0039	   21.3599	    6.6101	  -16.5285	
 -230.0000	-1.172E-12	1.348E+10	   20.0039	   21.3599	    6.6101	  -16.5285	
 -235.0000	-1.170E-12	1.272E+10	   20.0090	   21.3628	    6.5984	  -16.5475	
 -240.0000	-1.169E-12	1.002E+10	   20.0090	   21.3628	    6.5984	  -16.5475	
 -245.0000	-1.170E-12	1.194E+10	   20.0064	   21.3614	    6.5955	  -16.5536	
 -250.0000	-1.172E-12	1.088E+10	   20.0064	   21.3581	    6.6053	  -16.5384	
 -255.0000	-1.171E-12	1.072E+10	   20.0039	   21.3600	    6.5980	  -16.5501	
 -260.0000	-1.170E-12	1.146E+10	   20.0013	   21.3587	    6.5939	  -16.5585	
 -265.0000	-1.171E-12	1.049E+10	   19.9987	   21.3629	    6.6025	  -16.5401	
 -270.0000	-1.172E-12	1.276E+10	   19.9961	   21.3659	    6.5949	  -16.5515	
 -275.0000	-1.171E-12	1.190E+10	   19.9936	   21.3667	    6.5911	  -16.5578	
 -280.0000	-1.168E-12	1.101E+10	   19.9936	   21.3658	    6.5990	  -16.5442	
 -285.0000	-1.169E-12	1.091E+10	   19.9936	   21.3681	    6.6022	  -16.5368	
 -290.0000	-1.169E-12	1.010E+10	   19.9961	   21.3636	    6.5927	  -16.5572	
 -295.0000	-1.170E-12	1.110E+10	   19.9987	   21.3643	    6.5980	  -16.5470	
 -300.0000	-1.168E-12	1.052E+10	   20.0039	   21.3692	    6.6069	  -16.5274	
 -305.0000	-1.170E-12	1.110E+10	   20.0039	   21.3627	    6.6097	  -16.5271	
 -310.0000	-1.171E-12	9.920E+9	   20.0090	   21.3698	    6.6063	  -16.5282	
 -315.0000	-1.170E-12	1.425E+10	   20.0090	   21.3698	    6.5949	  -16.5487	
 -320.0000	-1.172E-12	1.421E+10	   20.0090	   21.3698	    6.5946	  -16.5493	
 -325.0000	-1.171E-12	1.243E+10	   20.0064	   21.3697	    6.6053	  -16.5299	
 -330.0000	-1.170E-12	9.049E+9	   20.0039	   21.3714	    6.6037	  -16.5316	
 -335.0000	-1.171E-12	1.110E+10	   20.0013	   21.3700	    6.6085	  -16.5240	
 -340.0000	-1.167E-12	1.391E+10	   19.9987	   21.3733	    6.6120	  -16.5153	
 -345.0000	-1.171E-12	1.184E+10	   19.9961	   21.3733	    6.5999	  -16.5370	
 -350.0000	-1.172E-12	1.062E+10	   19.9936	   21.3715	    6.6022	  -16.5343	
 -355.0000	-1.171E-12	1.047E+10	   19.9936	   21.3696	    6.6050	  -16.5306	
 -360.0000	-1.172E-12	1.109E+10	   19.9936	   21.3694	    6.6094	  -16.5227	
 -365.0000	-1.171E-12	9.808E+9	   19.9961	   21.3694	    6.6097	  -16.5221	
 -370.0000	-1.169E-12	9.755E+9	   19.9987	   21.3693	    6.6088	  -16.5239	
 -375.0000	-1.170E-12	1.423E+10	   20.0013	   21.3693	    6.6120	  -16.5182	
 -380.0000	-1.167E-12	1.035E+10	   20.0039	   21.3748	    6.6154	  -16.5080	
 -385.0000	-1.171E-12	1.048E+10	   20.0064	   21.3739	    6.6113	  -16.5160	
 -390.0000	-1.170E-12	1.162E+10	   20.0064	   21.3722	    6.6040	  -16.5304	
 -395.0000	-1.169E-12	1.125E+10	   20.0090	   21.3722	    6.6189	  -16.5036	
 -400.0000	-1.173E-12	1.031E+10	   20.0064	   21.3729	    6.6120	  -16.5156	
 -410.0000	-1.170E-12	9.633E+9	   20.0090	   21.3729	    6.6009	  -16.5356	
 -420.0000	-1.169E-12	8.684E+9	   20.0039	   21.3736	    6.6053	  -16.5271	
 -430.0000	-1.173E-12	9.797E+9	   20.0039	   21.3732	    6.6107	  -16.5177	
 -440.0000	-1.171E-12	1.020E+10	   19.9987	   21.3712	    6.6123	  -16.5163	
 -450.0000	-1.171E-12	1.327E+10	   19.9961	   21.3743	    6.6142	  -16.5106	
 -460.0000	-1.169E-12	1.178E+10	   19.9936	   21.3722	    6.6110	  -16.5179	
 -470.0000	-1.172E-12	1.017E+10	   19.9936	   21.3722	    6.6110	  -16.5179	
 -480.0000	-1.170E-12	1.037E+10	   19.9936	   21.3783	    6.6167	  -16.5032	
 -490.0000	-1.169E-12	1.528E+10	   19.9936	   21.3763	    6.6063	  -16.5234	
 -500.0000	-1.169E-12	1.343E+10	   19.9961	   21.3795	    6.6025	  -16.5279	
 -510.0000	-1.170E-12	1.119E+10	   20.0013	   21.3795	    6.6167	  -16.5279	
 -520.0000	-1.168E-12	1.330E+10	   20.0039	   21.3774	    6.6113	  -16.5135	
 -530.0000	-1.170E-12	1.313E+10	   20.0039	   21.3774	    6.6113	  -16.5135	
 -540.0000	-1.171E-12	9.652E+9	   20.0090	   21.3782	    6.6085	  -16.5180	
 -550.0000	-1.171E-12	9.088E+9	   20.0116	   21.3789	    6.6135	  -16.5084	
 -560.0000	-1.170E-12	1.201E+10	   20.0116	   21.3789	    6.6135	  -16.5084	
 -570.0000	-1.173E-12	1.270E+10	   20.0090	   21.3857	    6.6132	  -16.5040	
 -580.0000	-1.171E-12	9.754E+9	   20.0090	   21.3857	    6.6132	  -16.5040	
 -590.0000	-1.172E-12	9.584E+9	   20.0064	   21.3878	    6.6034	  -16.5202	
 -600.0000	-1.170E-12	8.857E+9	   19.9961	   21.3822	    6.6047	  -16.5219	
