GCD Test
Bias: 5000.000000
CV_36696_010_PSS_HM_XX_DIODEQUARTER
Date/Time: 8/17/2021 5:36:18 PM
Sensor Name: 36696_010_PSS_HM_XX_DIODEQUARTER
Type: P
Annealing Status: Unirrad
Environment: -20C
Tester: Eric Spencer

Time Delay per Ramp Step (s): 0.500

CV Time Delay per Measurement (s) :0.500

AC Voltage (V): 0.500

Current Number of measurements per voltage: 1.000

IV Time Delay per Measurement (s) :0.000


BiasVoltage	LCR_Cp_freqNaN	LCR_Rp_freqNaN	Temperature	Air_Temp	Humidity	Dewpoint	
   -5.0000	1.789E-11	1.750E+9	   19.9807	   21.4171	    7.9260	  -14.3012	
  -10.0000	1.399E-11	1.964E+9	   19.9601	   21.4149	    7.9203	  -14.3116	
  -15.0000	1.215E-11	1.968E+9	   19.9421	   21.4166	    7.9054	  -14.3331	
  -20.0000	1.099E-11	2.054E+9	   19.9472	   21.4074	    7.9016	  -14.3458	
  -25.0000	1.012E-11	2.023E+9	   19.9472	   21.4074	    7.9016	  -14.3458	
  -30.0000	9.415E-12	2.054E+9	   19.9781	   21.4074	    7.8963	  -14.3541	
  -35.0000	8.648E-12	1.913E+9	   20.0090	   21.4098	    7.8906	  -14.3610	
  -40.0000	7.821E-12	2.141E+9	   20.0347	   21.4157	    7.8925	  -14.3538	
  -45.0000	7.329E-12	2.202E+9	   20.0631	   21.4108	    7.8906	  -14.3603	
  -50.0000	7.090E-12	2.291E+9	   20.0811	   21.4099	    7.8903	  -14.3614	
  -55.0000	6.947E-12	1.906E+9	   20.0862	   21.4161	    7.8880	  -14.3602	
  -60.0000	5.738E-12	1.749E+9	   20.0811	   21.4083	    7.8814	  -14.3763	
  -65.0000	5.688E-12	1.977E+9	   20.0682	   21.4088	    7.8792	  -14.3793	
  -70.0000	5.631E-12	1.997E+9	   20.0425	   21.4022	    7.8925	  -14.3638	
  -75.0000	5.587E-12	2.082E+9	   20.0193	   21.3998	    7.8871	  -14.3738	
  -80.0000	5.556E-12	1.923E+9	   19.9910	   21.4039	    7.8896	  -14.3669	
  -85.0000	5.517E-12	2.088E+9	   19.9678	   21.4037	    7.8748	  -14.3899	
  -90.0000	5.490E-12	2.129E+9	   19.9472	   21.3963	    7.8795	  -14.3881	
  -95.0000	5.463E-12	2.068E+9	   19.9369	   21.3978	    7.8811	  -14.3846	
 -100.0000	5.438E-12	1.953E+9	   19.9369	   21.3947	    7.8681	  -14.4069	
 -105.0000	5.415E-12	2.200E+9	   19.9472	   21.3934	    7.8665	  -14.4103	
 -110.0000	5.391E-12	1.990E+9	   19.9653	   21.3933	    7.8586	  -14.4226	
 -115.0000	5.370E-12	2.306E+9	   19.9936	   21.3973	    7.8596	  -14.4181	
 -120.0000	5.350E-12	2.360E+9	   20.0193	   21.3928	    7.8504	  -14.4357	
 -125.0000	5.330E-12	2.332E+9	   20.0476	   21.3928	    7.8507	  -14.4352	
 -130.0000	5.314E-12	2.132E+9	   20.0862	   21.3897	    7.8529	  -14.4340	
 -135.0000	5.302E-12	2.304E+9	   20.0914	   21.3965	    7.8428	  -14.4446	
 -140.0000	5.285E-12	2.331E+9	   20.0837	   21.3985	    7.8302	  -14.4627	
 -145.0000	5.266E-12	2.208E+9	   20.0631	   21.3959	    7.8362	  -14.4554	
 -150.0000	5.250E-12	2.074E+9	   20.0399	   21.3916	    7.8223	  -14.4802	
 -155.0000	5.240E-12	2.072E+9	   20.0116	   21.3923	    7.8321	  -14.4644	
 -160.0000	5.230E-12	2.248E+9	   19.9833	   21.3956	    7.8283	  -14.4678	
 -165.0000	5.215E-12	2.318E+9	   19.9575	   21.3900	    7.8280	  -14.4725	
 -170.0000	5.203E-12	2.195E+9	   19.9421	   21.3962	    7.8134	  -14.4905	
 -175.0000	5.197E-12	2.154E+9	   19.9369	   21.4034	    7.8185	  -14.4773	
 -180.0000	5.182E-12	2.206E+9	   19.9421	   21.3982	    7.8134	  -14.4890	
 -185.0000	5.173E-12	2.175E+9	   19.9601	   21.3948	    7.8131	  -14.4920	
 -190.0000	5.167E-12	2.641E+9	   19.9833	   21.3882	    7.8106	  -14.5009	
 -195.0000	5.153E-12	2.409E+9	   20.0142	   21.3817	    7.8065	  -14.5121	
 -200.0000	5.149E-12	2.324E+9	   20.0425	   21.3800	    7.8052	  -14.5153	
 -205.0000	5.134E-12	2.241E+9	   20.0759	   21.3930	    7.8140	  -14.4918	
 -210.0000	5.132E-12	2.228E+9	   20.0939	   21.3929	    7.7919	  -14.5264	
 -215.0000	5.126E-12	2.425E+9	   20.0991	   21.3929	    7.8068	  -14.5033	
 -220.0000	5.114E-12	2.428E+9	   20.0862	   21.3898	    7.7925	  -14.5277	
 -225.0000	5.110E-12	2.246E+9	   20.0605	   21.3898	    7.7944	  -14.5248	
 -230.0000	5.097E-12	2.271E+9	   20.0296	   21.3942	    7.7916	  -14.5259	
 -235.0000	5.091E-12	2.429E+9	   20.0013	   21.3949	    7.7872	  -14.5323	
 -240.0000	5.087E-12	2.548E+9	   19.9704	   21.3803	    7.7875	  -14.5427	
 -245.0000	5.073E-12	2.157E+9	   19.9524	   21.3803	    7.7881	  -14.5417	
 -250.0000	5.071E-12	2.287E+9	   19.9447	   21.3736	    7.7849	  -14.5516	
 -255.0000	5.070E-12	2.425E+9	   19.9550	   21.3736	    7.7865	  -14.5491	
 -260.0000	5.060E-12	2.305E+9	   19.9678	   21.3772	    7.7774	  -14.5607	
 -265.0000	5.049E-12	2.252E+9	   19.9936	   21.3740	    7.7808	  -14.5576	
 -270.0000	5.046E-12	2.492E+9	   20.0193	   21.3864	    7.7739	  -14.5593	
 -275.0000	5.039E-12	2.454E+9	   20.0450	   21.3796	    7.7812	  -14.5530	
 -280.0000	5.032E-12	2.211E+9	   20.0708	   21.3842	    7.7672	  -14.5713	
 -285.0000	5.029E-12	2.483E+9	   20.0837	   21.3814	    7.7802	  -14.5531	
 -290.0000	5.023E-12	2.348E+9	   20.0837	   21.3847	    7.7840	  -14.5448	
 -295.0000	5.019E-12	2.539E+9	   20.0579	   21.3728	    7.7732	  -14.5704	
 -300.0000	5.018E-12	2.293E+9	   20.0373	   21.3829	    7.7726	  -14.5639	
 -305.0000	5.016E-12	2.525E+9	   20.0090	   21.3784	    7.7615	  -14.5845	
 -310.0000	5.010E-12	2.337E+9	   19.9833	   21.3666	    7.7739	  -14.5740	
 -315.0000	5.003E-12	2.282E+9	   19.9601	   21.3691	    7.7710	  -14.5766	
 -320.0000	5.001E-12	2.346E+9	   19.9421	   21.3719	    7.7698	  -14.5765	
 -325.0000	4.998E-12	2.375E+9	   19.9369	   21.3762	    7.7647	  -14.5812	
 -330.0000	4.998E-12	2.257E+9	   19.9395	   21.3686	    7.7647	  -14.5868	
 -335.0000	4.996E-12	2.461E+9	   19.9550	   21.3610	    7.7679	  -14.5875	
 -340.0000	4.995E-12	2.482E+9	   19.9781	   21.3665	    7.7552	  -14.6032	
 -345.0000	4.993E-12	2.547E+9	   20.0219	   21.3621	    7.7574	  -14.6030	
 -350.0000	4.991E-12	2.558E+9	   20.0656	   21.3663	    7.7530	  -14.6068	
 -355.0000	4.985E-12	2.238E+9	   20.0656	   21.3663	    7.7530	  -14.6068	
 -360.0000	4.988E-12	2.409E+9	   20.1017	   21.3726	    7.7489	  -14.6086	
 -365.0000	4.989E-12	2.370E+9	   20.1120	   21.3726	    7.7479	  -14.6101	
 -370.0000	4.988E-12	2.240E+9	   20.1042	   21.3733	    7.7540	  -14.6002	
 -375.0000	4.989E-12	2.654E+9	   20.0605	   21.3687	    7.7416	  -14.6229	
 -380.0000	4.986E-12	2.405E+9	   20.0296	   21.3711	    7.7416	  -14.6211	
 -385.0000	4.983E-12	2.525E+9	   20.0013	   21.3815	    7.7296	  -14.6322	
 -390.0000	4.986E-12	2.527E+9	   19.9781	   21.3846	    7.7293	  -14.6304	
 -395.0000	4.982E-12	2.493E+9	   19.9550	   21.3670	    7.7347	  -14.6350	
 -400.0000	4.980E-12	2.256E+9	   19.9498	   21.3650	    7.7353	  -14.6355	
 -410.0000	4.980E-12	2.203E+9	   19.9575	   21.3600	    7.7226	  -14.6591	
 -420.0000	4.977E-12	2.451E+9	   19.9781	   21.3600	    7.7230	  -14.6586	
 -430.0000	4.980E-12	2.537E+9	   20.0039	   21.3574	    7.7223	  -14.6615	
 -440.0000	4.985E-12	2.579E+9	   20.0347	   21.3568	    7.7192	  -14.6669	
 -450.0000	4.978E-12	2.516E+9	   20.0553	   21.3633	    7.7293	  -14.6462	
 -460.0000	4.979E-12	2.282E+9	   20.0759	   21.3681	    7.7119	  -14.6699	
 -470.0000	4.977E-12	2.393E+9	   20.0862	   21.3681	    7.7090	  -14.6744	
 -480.0000	4.979E-12	2.530E+9	   20.0785	   21.3659	    7.7207	  -14.6577	
 -490.0000	4.981E-12	2.381E+9	   20.0476	   21.3659	    7.7138	  -14.6686	
 -500.0000	4.980E-12	2.569E+9	   20.0219	   21.3632	    7.7147	  -14.6691	
 -510.0000	4.973E-12	2.478E+9	   19.9807	   21.3633	    7.7154	  -14.6680	
 -520.0000	4.978E-12	2.563E+9	   19.9524	   21.3574	    7.7059	  -14.6873	
 -530.0000	4.983E-12	2.613E+9	   19.9266	   21.3546	    7.7059	  -14.6894	
 -540.0000	4.974E-12	2.391E+9	   19.9266	   21.3546	    7.7059	  -14.6894	
 -550.0000	4.978E-12	2.564E+9	   19.9266	   21.3450	    7.7068	  -14.6950	
 -560.0000	4.978E-12	2.467E+9	   19.9601	   21.3508	    7.7160	  -14.6763	
 -570.0000	4.979E-12	2.358E+9	   19.9601	   21.3508	    7.7160	  -14.6763	
 -580.0000	4.978E-12	2.617E+9	   20.0553	   21.3553	    7.7018	  -14.6953	
 -590.0000	4.979E-12	2.598E+9	   20.0862	   21.3590	    7.7049	  -14.6877	
 -600.0000	4.976E-12	2.607E+9	   20.1171	   21.3507	    7.7081	  -14.6888	
