GCD Test
Bias: 5000.000000
CV_34341_038_PSS_HM_XX_DIODEQUARTER
Date/Time: 4/28/2021 12:59:53 PM
Sensor Name: DIODEQUARTER
Type: P
Annealing Status: Unirradiated
Environment: RT
Tester: Andrew Kent

Time Delay per Ramp Step (s): 0.500

CV Time Delay per Measurement (s) :0.500

AC Voltage (V): 0.500

Current Number of measurements per voltage: 1.000

IV Time Delay per Measurement (s) :0.000


BiasVoltage	LCR_Cp_freqNaN	LCR_Rp_freqNaN	Temperature	Air_Temp	Humidity	Dewpoint	
   -5.0000	1.627E-11	1.850E+9	   22.3804	   22.5854	    6.2622	  -16.2820	
  -10.0000	1.294E-11	2.841E+9	   22.3804	   22.5789	    6.2783	  -16.2560	
  -15.0000	1.136E-11	2.923E+9	   22.3804	   22.5791	    6.2805	  -16.2517	
  -20.0000	1.038E-11	2.950E+9	   22.3804	   22.5791	    6.2805	  -16.2517	
  -25.0000	9.688E-12	3.090E+9	   22.3804	   22.5780	    6.2587	  -16.2940	
  -30.0000	9.174E-12	2.883E+9	   22.3804	   22.5780	    6.2587	  -16.2940	
  -35.0000	8.740E-12	2.721E+9	   22.3804	   22.5821	    6.2793	  -16.2520	
  -40.0000	8.372E-12	3.122E+9	   22.3804	   22.5797	    6.3004	  -16.2134	
  -45.0000	8.044E-12	2.840E+9	   22.3804	   22.5842	    6.2982	  -16.2144	
  -50.0000	7.747E-12	2.966E+9	   22.3804	   22.5832	    6.2960	  -16.2193	
  -55.0000	7.465E-12	2.970E+9	   22.3804	   22.5847	    6.3008	  -16.2092	
  -60.0000	7.180E-12	3.045E+9	   22.3830	   22.5817	    6.2925	  -16.2270	
  -65.0000	6.899E-12	2.986E+9	   22.3830	   22.5892	    6.2830	  -16.2396	
  -70.0000	6.668E-12	3.251E+9	   22.3804	   22.5838	    6.2935	  -16.2237	
  -75.0000	6.473E-12	3.030E+9	   22.3830	   22.5875	    6.2966	  -16.2150	
  -80.0000	6.307E-12	3.151E+9	   22.3804	   22.5869	    6.2935	  -16.2214	
  -85.0000	6.201E-12	3.193E+9	   22.3830	   22.5875	    6.3020	  -16.2048	
  -90.0000	6.134E-12	3.216E+9	   22.3830	   22.5901	    6.3147	  -16.1789	
  -95.0000	6.081E-12	2.705E+9	   22.3804	   22.5831	    6.3033	  -16.2056	
 -100.0000	6.035E-12	1.508E+9	   22.3804	   22.5860	    6.3163	  -16.1789	
 -105.0000	5.252E-12	1.399E+9	   22.3804	   22.5920	    6.3083	  -16.1895	
 -110.0000	5.221E-12	2.089E+9	   22.3830	   22.5824	    6.3058	  -16.2012	
 -115.0000	5.207E-12	2.400E+9	   22.3804	   22.5913	    6.2970	  -16.2116	
 -120.0000	5.185E-12	2.487E+9	   22.3830	   22.5913	    6.2973	  -16.2110	
 -125.0000	5.170E-12	2.556E+9	   22.3804	   22.5914	    6.3042	  -16.1977	
 -130.0000	5.153E-12	2.729E+9	   22.3830	   22.5922	    6.2973	  -16.2104	
 -135.0000	5.142E-12	2.705E+9	   22.3804	   22.5901	    6.2992	  -16.2083	
 -140.0000	5.127E-12	2.728E+9	   22.3804	   22.5901	    6.2992	  -16.2083	
 -145.0000	5.115E-12	2.703E+9	   22.3804	   22.5901	    6.2976	  -16.2113	
 -150.0000	5.109E-12	2.844E+9	   22.3830	   22.5882	    6.2906	  -16.2258	
 -155.0000	5.091E-12	2.786E+9	   22.3804	   22.5884	    6.2751	  -16.2552	
 -160.0000	5.081E-12	2.824E+9	   22.3804	   22.5909	    6.2761	  -16.2516	
 -165.0000	5.068E-12	2.685E+9	   22.3830	   22.5909	    6.2634	  -16.2757	
 -170.0000	5.062E-12	2.825E+9	   22.3855	   22.5909	    6.2419	  -16.3168	
 -175.0000	5.054E-12	2.911E+9	   22.3830	   22.5916	    6.2464	  -16.3078	
 -180.0000	5.043E-12	2.685E+9	   22.3830	   22.5937	    6.2473	  -16.3045	
 -185.0000	5.033E-12	2.770E+9	   22.3830	   22.5937	    6.2473	  -16.3045	
 -190.0000	5.022E-12	2.635E+9	   22.3830	   22.5910	    6.2489	  -16.3033	
 -195.0000	5.014E-12	2.932E+9	   22.3855	   22.5910	    6.2596	  -16.2829	
 -200.0000	5.006E-12	2.780E+9	   22.3830	   22.5907	    6.2521	  -16.2975	
 -205.0000	4.997E-12	2.828E+9	   22.3830	   22.5907	    6.2521	  -16.2975	
 -210.0000	4.989E-12	2.759E+9	   22.3830	   22.5959	    6.2502	  -16.2974	
 -215.0000	4.983E-12	2.914E+9	   22.3830	   22.5921	    6.2571	  -16.2869	
 -220.0000	4.977E-12	2.800E+9	   22.3830	   22.5980	    6.2783	  -16.2422	
 -225.0000	4.973E-12	3.124E+9	   22.3855	   22.5932	    6.2783	  -16.2457	
 -230.0000	4.969E-12	2.797E+9	   22.3855	   22.5930	    6.2827	  -16.2374	
 -235.0000	4.966E-12	2.833E+9	   22.3855	   22.5930	    6.2827	  -16.2374	
 -240.0000	4.965E-12	3.015E+9	   22.3855	   22.5900	    6.2796	  -16.2456	
 -245.0000	4.961E-12	3.125E+9	   22.3855	   22.5997	    6.2774	  -16.2428	
 -250.0000	4.961E-12	3.090E+9	   22.3855	   22.5923	    6.2856	  -16.2325	
 -255.0000	4.959E-12	3.062E+9	   22.3855	   22.5901	    6.2663	  -16.2708	
 -260.0000	4.958E-12	2.987E+9	   22.3855	   22.5995	    6.2723	  -16.2526	
 -265.0000	4.958E-12	2.992E+9	   22.3830	   22.5944	    6.2679	  -16.2647	
 -270.0000	4.958E-12	3.067E+9	   22.3855	   22.5944	    6.2669	  -16.2665	
 -275.0000	4.954E-12	3.014E+9	   22.3855	   22.5953	    6.2638	  -16.2719	
 -280.0000	4.958E-12	3.230E+9	   22.3855	   22.5953	    6.2638	  -16.2719	
 -285.0000	4.954E-12	3.336E+9	   22.3855	   22.5941	    6.2701	  -16.2607	
 -290.0000	4.954E-12	3.094E+9	   22.3855	   22.5951	    6.2603	  -16.2787	
 -295.0000	4.953E-12	3.135E+9	   22.3855	   22.5967	    6.2590	  -16.2799	
 -300.0000	4.953E-12	3.213E+9	   22.3855	   22.5959	    6.2581	  -16.2823	
 -305.0000	4.955E-12	3.215E+9	   22.3855	   22.5992	    6.2622	  -16.2721	
 -310.0000	4.952E-12	3.351E+9	   22.3855	   22.5996	    6.2660	  -16.2645	
 -315.0000	4.954E-12	3.054E+9	   22.3855	   22.5996	    6.2701	  -16.2567	
 -320.0000	4.949E-12	3.297E+9	   22.3855	   22.5986	    6.2625	  -16.2719	
 -325.0000	4.955E-12	3.250E+9	   22.3855	   22.6025	    6.2615	  -16.2709	
 -330.0000	4.953E-12	3.130E+9	   22.3855	   22.5947	    6.2669	  -16.2663	
 -335.0000	4.951E-12	2.992E+9	   22.3855	   22.5986	    6.2565	  -16.2833	
 -340.0000	4.950E-12	3.220E+9	   22.3881	   22.5942	    6.2660	  -16.2684	
 -345.0000	4.951E-12	3.230E+9	   22.3855	   22.5986	    6.2638	  -16.2695	
 -350.0000	4.951E-12	3.395E+9	   22.3855	   22.5986	    6.2638	  -16.2695	
 -355.0000	4.953E-12	3.040E+9	   22.3881	   22.6034	    6.2732	  -16.2479	
 -360.0000	4.954E-12	3.184E+9	   22.3855	   22.6034	    6.2628	  -16.2678	
 -365.0000	4.951E-12	3.097E+9	   22.3855	   22.5984	    6.2650	  -16.2672	
 -370.0000	4.952E-12	3.251E+9	   22.3855	   22.6007	    6.2584	  -16.2782	
 -375.0000	4.951E-12	3.176E+9	   22.3855	   22.5972	    6.2631	  -16.2717	
 -380.0000	4.950E-12	3.147E+9	   22.3881	   22.5991	    6.2552	  -16.2854	
 -385.0000	4.951E-12	3.038E+9	   22.3855	   22.5998	    6.2577	  -16.2800	
 -390.0000	4.953E-12	3.438E+9	   22.3881	   22.5998	    6.2720	  -16.2529	
 -395.0000	4.950E-12	3.079E+9	   22.3855	   22.6049	    6.2685	  -16.2559	
 -400.0000	4.950E-12	3.130E+9	   22.3881	   22.6031	    6.2739	  -16.2470	
 -410.0000	4.949E-12	3.201E+9	   22.3881	   22.6049	    6.2641	  -16.2643	
 -420.0000	4.950E-12	3.375E+9	   22.3881	   22.6022	    6.2634	  -16.2675	
 -430.0000	4.949E-12	3.202E+9	   22.3855	   22.6051	    6.2707	  -16.2515	
 -440.0000	4.949E-12	3.205E+9	   22.3881	   22.5992	    6.2603	  -16.2757	
 -450.0000	4.951E-12	3.148E+9	   22.3881	   22.6008	    6.2717	  -16.2528	
 -460.0000	4.949E-12	3.327E+9	   22.3881	   22.6023	    6.2691	  -16.2566	
 -470.0000	4.949E-12	3.475E+9	   22.3881	   22.6103	    6.2742	  -16.2411	
 -480.0000	4.948E-12	3.381E+9	   22.3881	   22.6036	    6.2682	  -16.2574	
 -490.0000	4.949E-12	3.555E+9	   22.3907	   22.6092	    6.2562	  -16.2763	
 -500.0000	4.949E-12	3.463E+9	   22.3881	   22.6092	    6.2584	  -16.2720	
 -510.0000	4.948E-12	3.207E+9	   22.3881	   22.6074	    6.2423	  -16.3042	
 -520.0000	4.948E-12	3.574E+9	   22.3881	   22.6072	    6.2419	  -16.3049	
 -530.0000	4.947E-12	3.350E+9	   22.3907	   22.6049	    6.2381	  -16.3138	
 -540.0000	4.947E-12	3.374E+9	   22.3881	   22.6042	    6.2293	  -16.3313	
 -550.0000	4.949E-12	3.382E+9	   22.3907	   22.6045	    6.2296	  -16.3305	
 -560.0000	4.947E-12	3.441E+9	   22.3907	   22.6057	    6.2299	  -16.3290	
 -570.0000	4.948E-12	3.093E+9	   22.3881	   22.6066	    6.2230	  -16.3417	
 -580.0000	4.947E-12	3.313E+9	   22.3907	   22.6055	    6.2207	  -16.3468	
 -590.0000	4.948E-12	3.474E+9	   22.3907	   22.6095	    6.2283	  -16.3293	
 -600.0000	4.947E-12	3.234E+9	   22.3907	   22.6051	    6.2211	  -16.3464	
