GCD Test
Bias: 5000.000000
CV_34341_041_PSS_HM_XX_DIODEHALFPSTOP_GRConnected
Date/Time: 7/6/2021 2:36:22 PM
Sensor Name: DIODEHALFPSTOP
Type: P
Annealing Status: Not Irradiated
Environment: 20C
Tester: Andrew Kent

Time Delay per Ramp Step (s): 0.500

CV Time Delay per Measurement (s) :0.500

AC Voltage (V): 0.500

Current Number of measurements per voltage: 1.000

IV Time Delay per Measurement (s) :0.000


BiasVoltage	LCR_Cp_freq1000.0	LCR_Rp_freq1000.0	Temperature	Air_Temp	Humidity	Dewpoint	
   -5.0000	1.798E-11	1.515E+9	   19.9807	   20.1380	    6.8030	  -17.0805	
  -10.0000	1.456E-11	1.767E+9	   20.1223	   20.1411	    6.8068	  -17.0716	
  -15.0000	1.267E-11	1.916E+9	   20.1840	   20.1421	    6.8134	  -17.0594	
  -20.0000	1.145E-11	1.938E+9	   20.3179	   20.1511	    6.8087	  -17.0610	
  -25.0000	1.072E-11	2.219E+9	   20.3179	   20.1500	    6.8017	  -17.0739	
  -30.0000	1.020E-11	2.148E+9	   20.2381	   20.1576	    6.8055	  -17.0618	
  -35.0000	9.756E-12	1.893E+9	   20.1197	   20.1576	    6.7925	  -17.0844	
  -40.0000	9.400E-12	2.016E+9	   20.0270	   20.1473	    6.7948	  -17.0881	
  -45.0000	9.107E-12	2.036E+9	   19.9215	   20.1391	    6.8023	  -17.0809	
  -50.0000	8.866E-12	2.036E+9	   19.8443	   20.1366	    6.8004	  -17.0860	
  -55.0000	8.652E-12	2.044E+9	   19.7877	   20.1329	    6.7960	  -17.0964	
  -60.0000	8.465E-12	2.138E+9	   19.7594	   20.1297	    6.7916	  -17.1065	
  -65.0000	8.299E-12	2.322E+9	   19.7748	   20.1307	    6.7979	  -17.0947	
  -70.0000	8.158E-12	2.299E+9	   19.8288	   20.1246	    6.7989	  -17.0975	
  -75.0000	8.029E-12	2.214E+9	   19.9086	   20.1367	    6.8004	  -17.0859	
  -80.0000	7.902E-12	2.148E+9	   20.0193	   20.1381	    6.8087	  -17.0706	
  -85.0000	7.785E-12	2.101E+9	   20.1274	   20.1361	    6.8106	  -17.0687	
  -90.0000	7.690E-12	2.230E+9	   20.2252	   20.1368	    6.8115	  -17.0665	
  -95.0000	7.596E-12	2.064E+9	   20.3076	   20.1480	    6.8096	  -17.0617	
 -100.0000	7.507E-12	2.337E+9	   20.3488	   20.1447	    6.8137	  -17.0569	
 -105.0000	7.422E-12	2.356E+9	   20.3436	   20.1442	    6.8163	  -17.0529	
 -110.0000	7.347E-12	2.055E+9	   20.2999	   20.1504	    6.8049	  -17.0681	
 -115.0000	7.275E-12	2.229E+9	   20.2175	   20.1427	    6.8080	  -17.0683	
 -120.0000	7.217E-12	2.482E+9	   20.0734	   20.1450	    6.7992	  -17.0820	
 -125.0000	7.146E-12	2.245E+9	   19.9653	   20.1265	    6.7922	  -17.1078	
 -130.0000	7.094E-12	2.304E+9	   19.8649	   20.1271	    6.7973	  -17.0984	
 -135.0000	7.040E-12	2.265E+9	   19.7980	   20.1208	    6.7960	  -17.1053	
 -140.0000	6.979E-12	2.278E+9	   19.7594	   20.1181	    6.7995	  -17.1012	
 -145.0000	6.930E-12	2.127E+9	   19.7594	   20.1122	    6.7995	  -17.1056	
 -150.0000	6.888E-12	2.455E+9	   19.8057	   20.1146	    6.7929	  -17.1153	
 -155.0000	6.851E-12	2.442E+9	   19.8057	   20.1146	    6.7929	  -17.1153	
 -160.0000	6.808E-12	2.530E+9	   19.9369	   20.1175	    6.8074	  -17.0879	
 -165.0000	6.754E-12	2.289E+9	   20.0476	   20.1219	    6.8156	  -17.0703	
 -170.0000	6.722E-12	2.249E+9	   20.1763	   20.1345	    6.8071	  -17.0760	
 -175.0000	6.679E-12	2.250E+9	   20.2767	   20.1392	    6.8150	  -17.0587	
 -180.0000	6.648E-12	2.307E+9	   20.3539	   20.1392	    6.8080	  -17.0709	
 -185.0000	6.603E-12	2.331E+9	   20.3848	   20.1353	    6.8175	  -17.0572	
 -190.0000	6.568E-12	2.212E+9	   20.3308	   20.1386	    6.8042	  -17.0779	
 -195.0000	6.534E-12	2.162E+9	   20.2201	   20.1386	    6.8020	  -17.0818	
 -200.0000	6.503E-12	2.419E+9	   20.1274	   20.1321	    6.7954	  -17.0981	
 -205.0000	6.468E-12	2.387E+9	   20.0296	   20.1338	    6.8004	  -17.0880	
 -210.0000	6.442E-12	2.473E+9	   19.9266	   20.1253	    6.7944	  -17.1048	
 -215.0000	6.404E-12	2.603E+9	   19.8546	   20.1270	    6.8020	  -17.0903	
 -220.0000	6.381E-12	2.647E+9	   19.8057	   20.1233	    6.7887	  -17.1161	
 -225.0000	6.360E-12	2.135E+9	   19.7851	   20.1185	    6.7925	  -17.1130	
 -230.0000	6.349E-12	2.539E+9	   19.8057	   20.1149	    6.7979	  -17.1063	
 -235.0000	6.341E-12	2.524E+9	   19.8057	   20.1149	    6.7979	  -17.1063	
 -240.0000	6.332E-12	2.444E+9	   19.9910	   20.1176	    6.8055	  -17.0911	
 -245.0000	6.329E-12	2.634E+9	   20.0939	   20.1193	    6.8014	  -17.0970	
 -250.0000	6.324E-12	2.529E+9	   20.0939	   20.1193	    6.8014	  -17.0970	
 -255.0000	6.322E-12	2.558E+9	   20.2046	   20.1362	    6.8071	  -17.0747	
 -260.0000	6.316E-12	2.246E+9	   20.3179	   20.1290	    6.8102	  -17.0745	
 -265.0000	6.311E-12	2.228E+9	   20.3514	   20.1361	    6.8020	  -17.0836	
 -270.0000	6.318E-12	2.415E+9	   20.3514	   20.1361	    6.8020	  -17.0836	
 -275.0000	6.313E-12	2.345E+9	   20.2716	   20.1353	    6.8121	  -17.0666	
 -280.0000	6.306E-12	2.506E+9	   20.1892	   20.1257	    6.8001	  -17.0945	
 -285.0000	6.309E-12	2.466E+9	   19.9884	   20.1282	    6.7973	  -17.0976	
 -290.0000	6.306E-12	2.468E+9	   19.9884	   20.1282	    6.7973	  -17.0976	
 -295.0000	6.308E-12	2.211E+9	   19.8494	   20.1230	    6.7992	  -17.0981	
 -300.0000	6.309E-12	2.184E+9	   19.7645	   20.1145	    6.7951	  -17.1115	
 -305.0000	6.306E-12	2.258E+9	   19.7748	   20.1078	    6.8055	  -17.0983	
 -310.0000	6.304E-12	2.481E+9	   19.8314	   20.1070	    6.8055	  -17.0989	
 -315.0000	6.311E-12	2.544E+9	   19.9266	   20.1129	    6.8087	  -17.0890	
 -320.0000	6.302E-12	2.410E+9	   20.0347	   20.1164	    6.8004	  -17.1008	
 -325.0000	6.303E-12	2.653E+9	   20.1583	   20.1123	    6.8128	  -17.0823	
 -330.0000	6.302E-12	2.264E+9	   20.2613	   20.1183	    6.8248	  -17.0570	
 -335.0000	6.304E-12	2.211E+9	   20.3462	   20.1292	    6.8115	  -17.0721	
 -340.0000	6.302E-12	2.651E+9	   20.3822	   20.1342	    6.8140	  -17.0640	
 -345.0000	6.305E-12	2.685E+9	   20.3719	   20.1276	    6.8023	  -17.0893	
 -350.0000	6.300E-12	2.209E+9	   20.3153	   20.1389	    6.8128	  -17.0628	
 -355.0000	6.300E-12	2.535E+9	   20.2381	   20.1401	    6.8080	  -17.0702	
 -360.0000	6.308E-12	2.500E+9	   20.1454	   20.1344	    6.8102	  -17.0705	
 -365.0000	6.302E-12	2.520E+9	   19.9961	   20.1299	    6.8058	  -17.0815	
 -370.0000	6.298E-12	2.182E+9	   19.8983	   20.1208	    6.8068	  -17.0865	
 -375.0000	6.303E-12	2.196E+9	   19.8263	   20.1156	    6.8001	  -17.1020	
 -380.0000	6.303E-12	2.160E+9	   19.7774	   20.1160	    6.8011	  -17.1000	
 -385.0000	6.300E-12	2.461E+9	   19.7902	   20.1121	    6.8011	  -17.1029	
 -390.0000	6.303E-12	2.263E+9	   19.7902	   20.1121	    6.8011	  -17.1029	
 -395.0000	6.301E-12	2.098E+9	   19.9601	   20.1123	    6.8055	  -17.0950	
 -400.0000	6.304E-12	2.311E+9	   20.0682	   20.1172	    6.8191	  -17.0677	
 -410.0000	6.303E-12	2.609E+9	   20.1918	   20.1216	    6.8150	  -17.0717	
 -420.0000	6.305E-12	2.185E+9	   20.3256	   20.1264	    6.8150	  -17.0682	
 -430.0000	6.295E-12	2.316E+9	   20.3848	   20.1303	    6.8201	  -17.0564	
 -440.0000	6.299E-12	2.215E+9	   20.3925	   20.1321	    6.8213	  -17.0530	
 -450.0000	6.298E-12	2.589E+9	   20.3591	   20.1328	    6.8140	  -17.0651	
 -460.0000	6.297E-12	2.711E+9	   20.2819	   20.1309	    6.8125	  -17.0692	
 -470.0000	6.297E-12	2.547E+9	   20.1943	   20.1329	    6.8096	  -17.0727	
 -480.0000	6.303E-12	2.346E+9	   20.0991	   20.1236	    6.8112	  -17.0768	
 -490.0000	6.298E-12	2.644E+9	   19.9936	   20.1113	    6.8210	  -17.0687	
 -500.0000	6.293E-12	2.275E+9	   19.8958	   20.1125	    6.8178	  -17.0733	
 -510.0000	6.296E-12	2.217E+9	   19.8211	   20.1125	    6.8169	  -17.0750	
 -520.0000	6.298E-12	2.609E+9	   19.8211	   20.1125	    6.8169	  -17.0750	
 -530.0000	6.298E-12	2.294E+9	   19.7980	   20.1072	    6.8267	  -17.0619	
 -540.0000	6.299E-12	2.258E+9	   19.8185	   20.1063	    6.8178	  -17.0779	
 -550.0000	6.296E-12	2.432E+9	   19.8752	   20.1138	    6.8207	  -17.0675	
 -560.0000	6.300E-12	2.357E+9	   20.0785	   20.1193	    6.8305	  -17.0464	
 -570.0000	6.293E-12	2.228E+9	   20.1892	   20.1254	    6.8390	  -17.0271	
 -580.0000	6.302E-12	2.648E+9	   20.2870	   20.1253	    6.8362	  -17.0321	
 -590.0000	6.292E-12	2.424E+9	   20.3436	   20.1268	    6.8447	  -17.0162	
 -600.0000	6.296E-12	2.470E+9	   20.3616	   20.1335	    6.8343	  -17.0294	
