GCD Test
Bias: 5000.000000
IV_D0_CO138_LargeDiode_GRConnected_Irradiated_100min
Date/Time: 8/4/2021 4:56:40 PM
Sensor Name: CO138
Type: N
Annealing Status: Irradiated and Annealed at 60C for 100 minute
Environment: -20C
Tester: Andrew Kent

Time Delay per Ramp Step (s): 0.500

CV Time Delay per Measurement (s) :0.500

AC Voltage (V): 0.500

Current Number of measurements per voltage: 4.000

IV Time Delay per Measurement (s) :0.000


BiasVoltage	Total Current_Avg	Total Current_0	Total Current_1	Total Current_2	Total Current_3	Bias Current_Avg	Bias Current_0	Bias Current_1	Bias Current_2	Bias Current_3	Temperature	Air_Temp	Humidity	Dewpoint	
    1.0000	 3.1807E-7	 3.1710E-7	 3.1900E-7	 3.1850E-7	 3.1770E-7	3.189726E-7	3.194173E-7	3.188320E-7	3.193584E-7	3.182829E-7	  -20.0211	   11.7097	    4.9393	  -26.8175	
    2.0000	 4.3295E-7	 4.3250E-7	 4.3280E-7	 4.3280E-7	 4.3370E-7	4.354427E-7	4.341927E-7	4.356942E-7	4.349464E-7	4.369376E-7	  -20.0237	   11.7106	    4.9497	  -26.7940	
    3.0000	 5.2583E-7	 5.2690E-7	 5.2850E-7	 5.2480E-7	 5.2310E-7	5.221925E-7	5.214937E-7	5.227931E-7	5.226304E-7	5.218529E-7	  -20.0211	   11.6716	    4.9086	  -26.9123	
    4.0000	 6.0268E-7	 6.0430E-7	 6.0400E-7	 6.0130E-7	 6.0110E-7	6.031431E-7	6.034981E-7	6.013490E-7	6.042688E-7	6.034564E-7	  -20.0237	   11.6716	    4.8536	  -27.0344	
    5.0000	 6.7153E-7	 6.7200E-7	 6.7310E-7	 6.7150E-7	 6.6950E-7	6.729668E-7	6.727425E-7	6.712785E-7	6.738256E-7	6.740207E-7	  -20.0287	   11.6963	    4.8286	  -27.0725	
    6.0000	 7.3840E-7	 7.3680E-7	 7.3660E-7	 7.3830E-7	 7.4190E-7	7.406767E-7	7.425168E-7	7.400309E-7	7.406775E-7	7.394817E-7	  -20.0211	   11.7088	    4.7789	  -27.1753	
    7.0000	 8.0333E-7	 8.0490E-7	 8.0500E-7	 8.0330E-7	 8.0010E-7	8.043186E-7	8.051691E-7	8.046183E-7	8.038339E-7	8.036531E-7	  -20.0186	   11.6787	    4.7483	  -27.2663	
    8.0000	 8.5915E-7	 8.5880E-7	 8.5990E-7	 8.5870E-7	 8.5920E-7	8.615516E-7	8.612615E-7	8.642172E-7	8.614807E-7	8.592471E-7	  -20.0109	   11.6702	    4.7302	  -27.3134	
    9.0000	 9.1463E-7	 9.1600E-7	 9.1250E-7	 9.1540E-7	 9.1460E-7	9.171237E-7	9.173133E-7	9.166878E-7	9.189599E-7	9.155339E-7	  -20.0084	   11.6426	    4.6996	  -27.4033	
   10.0000	 9.7132E-7	 9.7100E-7	 9.7090E-7	 9.7230E-7	 9.7110E-7	9.708782E-7	9.743740E-7	9.721288E-7	9.682755E-7	9.687343E-7	  -20.0059	   11.6535	    4.6689	  -27.4660	
   20.0000	 1.4227E-6	 1.4250E-6	 1.4260E-6	 1.4220E-6	 1.4180E-6	1.428179E-6	1.426679E-6	1.431072E-6	1.427221E-6	1.427742E-6	  -20.0008	   11.6478	    4.6619	  -27.4862	
   30.0000	 1.8022E-6	 1.8060E-6	 1.8080E-6	 1.7980E-6	 1.7970E-6	1.795825E-6	1.801842E-6	1.799664E-6	1.793083E-6	1.788711E-6	  -20.0033	   11.6342	    4.6733	  -27.4696	
   40.0000	 2.1388E-6	 2.1390E-6	 2.1400E-6	 2.1320E-6	 2.1440E-6	2.136705E-6	2.139557E-6	2.138609E-6	2.134697E-6	2.133957E-6	  -19.9982	   11.6342	    4.6464	  -27.5317	
   50.0000	 2.4365E-6	 2.4310E-6	 2.4400E-6	 2.4460E-6	 2.4290E-6	2.435599E-6	2.425279E-6	2.433068E-6	2.437968E-6	2.446079E-6	  -19.9982	   11.6313	    4.6208	  -27.5933	
   60.0000	 2.6988E-6	 2.6930E-6	 2.7090E-6	 2.6970E-6	 2.6960E-6	2.704966E-6	2.699221E-6	2.704226E-6	2.709460E-6	2.706957E-6	  -19.9880	   11.6272	    4.5908	  -27.6664	
   70.0000	 2.9578E-6	 2.9580E-6	 2.9530E-6	 2.9540E-6	 2.9660E-6	2.964551E-6	2.969863E-6	2.965715E-6	2.960693E-6	2.961933E-6	  -19.9830	   11.6151	    4.5515	  -27.7672	
   80.0000	 3.1970E-6	 3.1910E-6	 3.1920E-6	 3.2080E-6	 3.1970E-6	3.191271E-6	3.191480E-6	3.194176E-6	3.197683E-6	3.181744E-6	  -19.9779	   11.6199	    4.5123	  -27.8567	
   90.0000	 3.4175E-6	 3.4230E-6	 3.4140E-6	 3.4190E-6	 3.4140E-6	3.411315E-6	3.404164E-6	3.412719E-6	3.411547E-6	3.416831E-6	  -19.9728	   11.6129	    4.4842	  -27.9288	
  100.0000	 3.6275E-6	 3.6350E-6	 3.6310E-6	 3.6170E-6	 3.6270E-6	3.615872E-6	3.614753E-6	3.614492E-6	3.615307E-6	3.618937E-6	  -19.9728	   11.5737	    4.4402	  -28.0622	
  120.0000	 4.0423E-6	 4.0440E-6	 4.0540E-6	 4.0250E-6	 4.0460E-6	4.045824E-6	4.062482E-6	4.051516E-6	4.038496E-6	4.030801E-6	  -19.9728	   11.5747	    4.4339	  -28.0767	
  140.0000	 4.3823E-6	 4.3800E-6	 4.3780E-6	 4.3880E-6	 4.3830E-6	4.386459E-6	4.390606E-6	4.376272E-6	4.390514E-6	4.388446E-6	  -19.9677	   11.5485	    4.3975	  -28.1835	
  160.0000	 4.7092E-6	 4.7060E-6	 4.7050E-6	 4.7010E-6	 4.7250E-6	4.698160E-6	4.701746E-6	4.705623E-6	4.689662E-6	4.695610E-6	  -19.9753	   11.5154	    4.3843	  -28.2393	
  180.0000	 4.9962E-6	 4.9910E-6	 5.0090E-6	 4.9880E-6	 4.9970E-6	4.981827E-6	4.996411E-6	4.974456E-6	4.978818E-6	4.977623E-6	  -19.9753	   11.5484	    4.3782	  -28.2306	
  200.0000	 5.2590E-6	 5.2540E-6	 5.2590E-6	 5.2560E-6	 5.2670E-6	5.259760E-6	5.262895E-6	5.266511E-6	5.259119E-6	5.250513E-6	  -19.9804	   11.5336	    4.3754	  -28.2480	
  220.0000	 5.4947E-6	 5.5150E-6	 5.4940E-6	 5.4850E-6	 5.4850E-6	5.497990E-6	5.503996E-6	5.494548E-6	5.489942E-6	5.503474E-6	  -19.9880	   11.5400	    4.3637	  -28.2721	
  240.0000	 5.6940E-6	 5.6890E-6	 5.6990E-6	 5.6970E-6	 5.6910E-6	5.707290E-6	5.721467E-6	5.712696E-6	5.693931E-6	5.701067E-6	  -19.9982	   11.5122	    4.3596	  -28.3018	
  260.0000	 5.9060E-6	 5.9180E-6	 5.9090E-6	 5.8820E-6	 5.9150E-6	5.904507E-6	5.903619E-6	5.894282E-6	5.895901E-6	5.924227E-6	  -20.0008	   11.5196	    4.3574	  -28.3021	
  280.0000	 6.1037E-6	 6.0740E-6	 6.1020E-6	 6.1390E-6	 6.1000E-6	6.097199E-6	6.089183E-6	6.095072E-6	6.114342E-6	6.090198E-6	  -20.0033	   11.5049	    4.3722	  -28.2760	
  300.0000	 6.2860E-6	 6.2630E-6	 6.3050E-6	 6.2830E-6	 6.2930E-6	6.290131E-6	6.318428E-6	6.288554E-6	6.272014E-6	6.281529E-6	  -20.0109	   11.4728	    4.3786	  -28.2833	
  320.0000	 6.4548E-6	 6.4340E-6	 6.4340E-6	 6.4670E-6	 6.4840E-6	6.437460E-6	6.461313E-6	6.435308E-6	6.422298E-6	6.430922E-6	  -20.0109	   11.4686	    4.3719	  -28.3025	
  340.0000	 6.5778E-6	 6.6010E-6	 6.5660E-6	 6.5750E-6	 6.5690E-6	6.548364E-6	6.556253E-6	6.565986E-6	6.539392E-6	6.531825E-6	  -20.0160	   11.4653	    4.3624	  -28.3281	
  360.0000	 6.7442E-6	 6.7420E-6	 6.7220E-6	 6.7410E-6	 6.7720E-6	6.737492E-6	6.776016E-6	6.754115E-6	6.718997E-6	6.700840E-6	  -20.0186	   11.4653	    4.3441	  -28.3731	
  380.0000	 6.8580E-6	 6.8370E-6	 6.8660E-6	 6.8740E-6	 6.8550E-6	6.879305E-6	6.881040E-6	6.892392E-6	6.873141E-6	6.870649E-6	  -20.0237	   11.4850	    4.3321	  -28.3887	
  400.0000	 6.9740E-6	 6.9640E-6	 6.9590E-6	 6.9730E-6	 7.0000E-6	6.991818E-6	6.976135E-6	6.980482E-6	7.028736E-6	6.981919E-6	  -20.0262	   11.4881	    4.3004	  -28.4647	
  420.0000	 7.1027E-6	 7.1200E-6	 7.1000E-6	 7.0880E-6	 7.1030E-6	7.130275E-6	7.119173E-6	7.111176E-6	7.124685E-6	7.166066E-6	  -20.0237	   11.4888	    4.2774	  -28.5216	
  440.0000	 7.2140E-6	 7.2420E-6	 7.2190E-6	 7.2080E-6	 7.1870E-6	7.193335E-6	7.169941E-6	7.213509E-6	7.199678E-6	7.190211E-6	  -20.0237	   11.4642	    4.2587	  -28.5857	
  460.0000	 7.2762E-6	 7.2940E-6	 7.2720E-6	 7.2970E-6	 7.2420E-6	7.267030E-6	7.258330E-6	7.266146E-6	7.281383E-6	7.262261E-6	  -20.0211	   11.4764	    4.2404	  -28.6230	
  480.0000	 7.3948E-6	 7.3990E-6	 7.3840E-6	 7.4050E-6	 7.3910E-6	7.413539E-6	7.425315E-6	7.403531E-6	7.400572E-6	7.424738E-6	  -20.0237	   11.4567	    4.2549	  -28.6005	
  500.0000	 7.4958E-6	 7.5040E-6	 7.4880E-6	 7.4930E-6	 7.4980E-6	7.469291E-6	7.458204E-6	7.451066E-6	7.489791E-6	7.478103E-6	  -20.0160	   11.4627	    4.2577	  -28.5891	
  520.0000	 7.6065E-6	 7.5910E-6	 7.6120E-6	 7.5950E-6	 7.6280E-6	7.601992E-6	7.616610E-6	7.631184E-6	7.586059E-6	7.574114E-6	  -20.0109	   11.4687	    4.2492	  -28.6062	
  540.0000	 7.6985E-6	 7.7020E-6	 7.6660E-6	 7.7050E-6	 7.7210E-6	7.703108E-6	7.717652E-6	7.691674E-6	7.718411E-6	7.684695E-6	  -20.0084	   11.4464	    4.2603	  -28.5943	
  560.0000	 7.7567E-6	 7.7880E-6	 7.7310E-6	 7.7400E-6	 7.7680E-6	7.785559E-6	7.789179E-6	7.798486E-6	7.776035E-6	7.778537E-6	  -20.0084	   11.4464	    4.2862	  -28.5296	
  580.0000	 7.8620E-6	 7.8400E-6	 7.8640E-6	 7.8660E-6	 7.8780E-6	7.872603E-6	7.858694E-6	7.887104E-6	7.864220E-6	7.880394E-6	  -20.0033	   11.4384	    4.3077	  -28.4818	
  600.0000	 7.9478E-6	 7.9530E-6	 7.9350E-6	 7.9540E-6	 7.9490E-6	7.935591E-6	7.934246E-6	7.935407E-6	7.920152E-6	7.952558E-6	  -20.0033	   11.3874	    4.3223	  -28.4819	
  620.0000	 8.0433E-6	 8.0740E-6	 8.0610E-6	 8.0360E-6	 8.0020E-6	8.012658E-6	8.013662E-6	8.006091E-6	8.005104E-6	8.025775E-6	  -20.0033	   11.3867	    4.3359	  -28.4489	
  640.0000	 8.1293E-6	 8.1340E-6	 8.1140E-6	 8.1240E-6	 8.1450E-6	8.122472E-6	8.141776E-6	8.136631E-6	8.124034E-6	8.087446E-6	  -20.0033	   11.3375	    4.3716	  -28.3960	
  660.0000	 8.2172E-6	 8.2220E-6	 8.2070E-6	 8.2420E-6	 8.1980E-6	8.225663E-6	8.210412E-6	8.217871E-6	8.211441E-6	8.262927E-6	  -19.9906	   11.3634	    4.4184	  -28.2639	
  680.0000	 8.3137E-6	 8.3320E-6	 8.3310E-6	 8.2880E-6	 8.3040E-6	8.300784E-6	8.289449E-6	8.309626E-6	8.296149E-6	8.307911E-6	  -19.9830	   11.4043	    4.4159	  -28.2410	
  700.0000	 8.4545E-6	 8.3980E-6	 8.4670E-6	 8.4980E-6	 8.4550E-6	8.455966E-6	8.441945E-6	8.459298E-6	8.475883E-6	8.446738E-6	  -19.9753	   11.3713	    4.4431	  -28.1988	
  720.0000	 8.5687E-6	 8.5610E-6	 8.5700E-6	 8.5740E-6	 8.5700E-6	8.546933E-6	8.552349E-6	8.535509E-6	8.555613E-6	8.544260E-6	  -19.9702	   11.3934	    4.4535	  -28.1580	
  740.0000	 8.6910E-6	 8.6640E-6	 8.6920E-6	 8.7120E-6	 8.6960E-6	8.720560E-6	8.743575E-6	8.748844E-6	8.706395E-6	8.683424E-6	  -19.9702	   11.4460	    4.4488	  -28.1321	
  760.0000	 8.8333E-6	 8.8310E-6	 8.8380E-6	 8.8520E-6	 8.8120E-6	8.810364E-6	8.802561E-6	8.825165E-6	8.812804E-6	8.800927E-6	  -19.9779	   11.4145	    4.4545	  -28.1407	
  780.0000	 8.9772E-6	 9.0070E-6	 8.9810E-6	 8.9530E-6	 8.9680E-6	8.980542E-6	8.983124E-6	8.985647E-6	8.975659E-6	8.977740E-6	  -19.9804	   11.3846	    4.4478	  -28.1779	
  800.0000	 9.1192E-6	 9.1250E-6	 9.1180E-6	 9.1240E-6	 9.1100E-6	9.134939E-6	9.131058E-6	9.106552E-6	9.159366E-6	9.142781E-6	  -19.9804	   11.3996	    4.4478	  -28.1673	
  820.0000	 9.2717E-6	 9.2720E-6	 9.2910E-6	 9.2710E-6	 9.2530E-6	9.282693E-6	9.236290E-6	9.291629E-6	9.298021E-6	9.304833E-6	  -19.9880	   11.3675	    4.4352	  -28.2205	
  840.0000	 9.4405E-6	 9.4600E-6	 9.4340E-6	 9.4230E-6	 9.4450E-6	9.472039E-6	9.489739E-6	9.479963E-6	9.446393E-6	9.472063E-6	  -19.9880	   11.2997	    4.4121	  -28.3243	
  860.0000	 9.6202E-6	 9.6140E-6	 9.6050E-6	 9.6210E-6	 9.6410E-6	9.615669E-6	9.627591E-6	9.607026E-6	9.615791E-6	9.612270E-6	  -19.9957	   11.2997	    4.3915	  -28.3742	
  880.0000	 9.8255E-6	 9.8210E-6	 9.8020E-6	 9.8400E-6	 9.8390E-6	9.812775E-6	9.830535E-6	9.786328E-6	9.813428E-6	9.820809E-6	  -19.9957	   11.2921	    4.3713	  -28.4289	
  900.0000	 9.9905E-6	 9.9800E-6	 9.9650E-6	 1.0021E-5	 9.9960E-6	1.000747E-5	1.001446E-5	1.001131E-5	9.997936E-6	1.000619E-5	  -20.0008	   11.2791	    4.3472	  -28.4969	
  920.0000	 1.0193E-5	 1.0190E-5	 1.0170E-5	 1.0210E-5	 1.0200E-5	1.018717E-5	1.019802E-5	1.018451E-5	1.016810E-5	1.019805E-5	  -20.0059	   11.3041	    4.3662	  -28.4328	
  940.0000	 1.0383E-5	 1.0380E-5	 1.0380E-5	 1.0400E-5	 1.0370E-5	1.039214E-5	1.038465E-5	1.042372E-5	1.038542E-5	1.037476E-5	  -20.0084	   11.2900	    4.3675	  -28.4397	
  960.0000	 1.0562E-5	 1.0560E-5	 1.0550E-5	 1.0590E-5	 1.0550E-5	1.054871E-5	1.053308E-5	1.055404E-5	1.056236E-5	1.054536E-5	  -20.0084	   11.3409	    4.3257	  -28.5062	
  980.0000	 1.0750E-5	 1.0770E-5	 1.0740E-5	 1.0740E-5	 1.0750E-5	1.083713E-5	1.082650E-5	1.083240E-5	1.082748E-5	1.086215E-5	  -20.0084	   11.3082	    4.2970	  -28.6005	
 1000.0000	 1.1032E-5	 1.1100E-5	 1.1030E-5	 1.0980E-5	 1.1020E-5	1.098068E-5	1.099504E-5	1.097654E-5	1.097592E-5	1.097522E-5	  -20.0109	   11.3019	    4.2793	  -28.6489	
