GCD Test
Bias: 5000.000000
IV_D0_CO138_LargeDiode_GRConnected_Irradiated
Date/Time: 7/28/2021 12:55:26 PM
Sensor Name: CO138
Type: N
Annealing Status: Irradiated, Not Annealed
Environment: -20C
Tester: Andrew Kent

Time Delay per Ramp Step (s): 0.500

CV Time Delay per Measurement (s) :0.500

AC Voltage (V): 0.500

Current Number of measurements per voltage: 4.000

IV Time Delay per Measurement (s) :0.000


BiasVoltage	Total Current_Avg	Total Current_0	Total Current_1	Total Current_2	Total Current_3	Bias Current_Avg	Bias Current_0	Bias Current_1	Bias Current_2	Bias Current_3	Temperature	Air_Temp	Humidity	Dewpoint	
    1.0000	 3.3752E-7	 3.3670E-7	 3.3670E-7	 3.3770E-7	 3.3900E-7	3.489797E-7	3.487618E-7	3.499104E-7	3.484746E-7	3.487722E-7	  -20.0135	    7.6540	    9.3042	  -22.8323	
    2.0000	 5.2220E-7	 5.2300E-7	 5.2100E-7	 5.2320E-7	 5.2160E-7	4.747555E-7	4.744494E-7	4.751358E-7	4.743788E-7	4.750580E-7	  -19.9906	    7.6373	    9.2992	  -22.8513	
    3.0000	 6.4015E-7	 6.3890E-7	 6.4510E-7	 6.4130E-7	 6.3530E-7	5.756107E-7	5.748157E-7	5.754331E-7	5.765091E-7	5.756851E-7	  -19.9906	    7.6239	    9.2853	  -22.8784	
    4.0000	 7.3643E-7	 7.3710E-7	 7.3420E-7	 7.3800E-7	 7.3640E-7	6.605490E-7	6.609430E-7	6.618719E-7	6.600818E-7	6.592993E-7	  -19.9397	    7.6622	    9.2767	  -22.8594	
    5.0000	 8.2153E-7	 8.2060E-7	 8.1740E-7	 8.2100E-7	 8.2710E-7	7.342758E-7	7.356375E-7	7.357941E-7	7.319132E-7	7.337583E-7	  -19.9448	    7.6389	    9.2720	  -22.8830	
    6.0000	 9.0935E-7	 9.0980E-7	 9.0880E-7	 9.1190E-7	 9.0690E-7	8.048068E-7	8.048211E-7	8.080829E-7	8.060612E-7	8.002618E-7	  -19.9372	    7.7039	    9.2707	  -22.8347	
    7.0000	 9.8827E-7	 9.8660E-7	 9.8730E-7	 9.9090E-7	 9.8830E-7	8.756192E-7	8.763889E-7	8.771900E-7	8.756371E-7	8.732607E-7	  -19.9626	    7.6172	    9.2657	  -22.9073	
    8.0000	 1.0568E-6	 1.0560E-6	 1.0630E-6	 1.0530E-6	 1.0550E-6	9.361421E-7	9.366037E-7	9.345533E-7	9.367344E-7	9.366771E-7	  -19.9855	    7.6999	    9.2650	  -22.8447	
    9.0000	 1.1275E-6	 1.1250E-6	 1.1260E-6	 1.1320E-6	 1.1270E-6	9.945682E-7	9.943165E-7	9.917252E-7	9.926127E-7	9.996185E-7	  -20.0008	    7.7092	    9.2669	  -22.8352	
   10.0000	 1.1925E-6	 1.1940E-6	 1.1940E-6	 1.1900E-6	 1.1920E-6	1.051885E-6	1.051630E-6	1.051244E-6	1.053596E-6	1.051069E-6	  -20.0109	    7.7092	    9.2628	  -22.8402	
   20.0000	 1.7668E-6	 1.7670E-6	 1.7660E-6	 1.7640E-6	 1.7700E-6	1.540041E-6	1.544845E-6	1.538575E-6	1.535824E-6	1.540918E-6	  -20.0059	    7.6525	    9.2625	  -22.8841	
   30.0000	 2.2295E-6	 2.2340E-6	 2.2320E-6	 2.2240E-6	 2.2280E-6	1.921628E-6	1.919076E-6	1.920725E-6	1.923153E-6	1.923557E-6	  -20.0033	    7.5896	    9.2748	  -22.9175	
   40.0000	 2.6395E-6	 2.6450E-6	 2.6390E-6	 2.6370E-6	 2.6370E-6	2.253803E-6	2.246316E-6	2.257025E-6	2.258772E-6	2.253100E-6	  -19.9855	    7.6015	    9.2745	  -22.9087	
   50.0000	 3.0085E-6	 3.0060E-6	 3.0010E-6	 3.0100E-6	 3.0170E-6	2.546825E-6	2.555867E-6	2.529186E-6	2.543513E-6	2.558734E-6	  -19.9855	    7.5828	    9.2729	  -22.9249	
   60.0000	 3.3668E-6	 3.3710E-6	 3.3730E-6	 3.3510E-6	 3.3720E-6	2.841371E-6	2.833757E-6	2.844563E-6	2.847015E-6	2.840148E-6	  -19.9855	    7.6276	    9.2774	  -22.8851	
   70.0000	 3.6948E-6	 3.7070E-6	 3.7030E-6	 3.6800E-6	 3.6890E-6	3.091682E-6	3.096904E-6	3.089297E-6	3.091865E-6	3.088664E-6	  -19.9957	    7.5598	    9.2834	  -22.9300	
   80.0000	 3.9877E-6	 3.9970E-6	 3.9820E-6	 3.9800E-6	 3.9920E-6	3.326741E-6	3.330485E-6	3.325891E-6	3.320368E-6	3.330220E-6	  -19.9982	    7.5973	    9.2985	  -22.8828	
   90.0000	 4.2455E-6	 4.2400E-6	 4.2390E-6	 4.2480E-6	 4.2550E-6	3.554978E-6	3.553850E-6	3.559188E-6	3.553585E-6	3.553288E-6	  -19.9702	    7.5973	    9.2989	  -22.8824	
  100.0000	 4.5305E-6	 4.5370E-6	 4.5430E-6	 4.5250E-6	 4.5170E-6	3.725930E-6	3.738419E-6	3.716020E-6	3.726016E-6	3.723263E-6	  -19.9601	    7.5695	    9.2944	  -22.9091	
  120.0000	 5.0275E-6	 5.0110E-6	 5.0420E-6	 5.0350E-6	 5.0220E-6	4.159887E-6	4.147832E-6	4.154739E-6	4.172847E-6	4.164128E-6	  -19.9728	    7.6217	    9.2957	  -22.8675	
  140.0000	 5.4525E-6	 5.4760E-6	 5.4650E-6	 5.4140E-6	 5.4550E-6	4.487875E-6	4.479549E-6	4.488720E-6	4.491718E-6	4.491512E-6	  -19.9804	    7.6311	    9.2960	  -22.8599	
  160.0000	 5.8990E-6	 5.8940E-6	 5.8840E-6	 5.9120E-6	 5.9060E-6	4.822150E-6	4.840282E-6	4.831547E-6	4.808755E-6	4.808014E-6	  -19.9931	    7.5897	    9.3052	  -22.8806	
  180.0000	 6.2443E-6	 6.2430E-6	 6.2060E-6	 6.2580E-6	 6.2700E-6	5.100826E-6	5.098531E-6	5.090042E-6	5.112268E-6	5.102462E-6	  -20.0059	    7.5959	    9.3023	  -22.8793	
  200.0000	 6.6073E-6	 6.6030E-6	 6.6190E-6	 6.5950E-6	 6.6120E-6	5.380821E-6	5.398827E-6	5.378230E-6	5.379171E-6	5.367056E-6	  -20.0033	    7.5315	    9.3096	  -22.9199	
  220.0000	 6.9342E-6	 6.9310E-6	 6.9610E-6	 6.9210E-6	 6.9240E-6	5.619029E-6	5.619295E-6	5.616499E-6	5.613528E-6	5.626795E-6	  -20.0033	    7.4779	    9.2995	  -22.9733	
  240.0000	 7.2103E-6	 7.2340E-6	 7.2240E-6	 7.1820E-6	 7.2010E-6	5.843191E-6	5.854222E-6	5.864007E-6	5.829210E-6	5.825326E-6	  -20.0109	    7.4945	    9.3036	  -22.9556	
  260.0000	 7.4865E-6	 7.5020E-6	 7.4990E-6	 7.4830E-6	 7.4620E-6	6.021849E-6	6.004567E-6	6.038753E-6	6.028335E-6	6.015739E-6	  -19.9931	    7.4945	    9.3118	  -22.9457	
  280.0000	 7.7667E-6	 7.7770E-6	 7.7480E-6	 7.7730E-6	 7.7690E-6	6.206252E-6	6.221318E-6	6.204494E-6	6.205014E-6	6.194180E-6	  -20.0033	    7.5043	    9.3065	  -22.9447	
  300.0000	 7.9520E-6	 7.9300E-6	 7.9680E-6	 7.9600E-6	 7.9500E-6	6.394895E-6	6.372149E-6	6.370177E-6	6.380929E-6	6.456326E-6	  -20.0084	    7.5155	    9.2963	  -22.9483	
  320.0000	 8.2495E-6	 8.2160E-6	 8.2520E-6	 8.2730E-6	 8.2570E-6	6.549254E-6	6.530212E-6	6.525924E-6	6.569941E-6	6.570939E-6	  -20.0160	    7.5198	    9.2824	  -22.9618	
  340.0000	 8.4683E-6	 8.4650E-6	 8.4420E-6	 8.4780E-6	 8.4880E-6	6.707184E-6	6.718523E-6	6.724728E-6	6.696808E-6	6.688675E-6	  -20.0160	    7.5171	    9.2827	  -22.9635	
  360.0000	 8.6595E-6	 8.6650E-6	 8.6380E-6	 8.6560E-6	 8.6790E-6	6.839048E-6	6.852929E-6	6.810626E-6	6.841618E-6	6.851018E-6	  -20.0109	    7.4877	    9.2748	  -22.9956	
  380.0000	 8.8695E-6	 8.7980E-6	 8.8700E-6	 8.9100E-6	 8.9000E-6	6.960428E-6	6.992508E-6	6.929310E-6	6.962905E-6	6.956988E-6	  -19.9982	    7.4752	    9.2660	  -23.0160	
  400.0000	 9.0758E-6	 9.0750E-6	 9.0720E-6	 9.0730E-6	 9.0830E-6	7.074967E-6	7.043067E-6	7.076413E-6	7.087054E-6	7.093333E-6	  -20.0135	    7.4897	    9.2672	  -23.0033	
  420.0000	 9.2808E-6	 9.2790E-6	 9.2890E-6	 9.2890E-6	 9.2660E-6	7.145810E-6	7.144021E-6	7.157932E-6	7.142778E-6	7.138510E-6	  -20.0237	    7.4897	    9.2634	  -23.0079	
  440.0000	 9.4657E-6	 9.4670E-6	 9.4500E-6	 9.4610E-6	 9.4850E-6	7.224191E-6	7.236232E-6	7.223211E-6	7.216030E-6	7.221292E-6	  -20.0186	    7.5349	    9.2502	  -22.9894	
  460.0000	 9.6802E-6	 9.6880E-6	 9.6850E-6	 9.6820E-6	 9.6660E-6	7.338912E-6	7.312246E-6	7.329589E-6	7.371054E-6	7.342760E-6	  -20.0287	    7.5408	    9.2350	  -23.0032	
  480.0000	 9.8900E-6	 9.8770E-6	 9.9130E-6	 9.8760E-6	 9.8940E-6	7.402117E-6	7.396150E-6	7.397116E-6	7.353517E-6	7.461686E-6	  -20.0160	    7.5408	    9.2445	  -22.9917	
  500.0000	 1.0095E-5	 1.0120E-5	 1.0070E-5	 1.0090E-5	 1.0100E-5	7.473649E-6	7.505309E-6	7.492618E-6	7.453989E-6	7.442681E-6	  -20.0084	    7.4986	    9.2426	  -23.0264	
  520.0000	 1.0360E-5	 1.0330E-5	 1.0350E-5	 1.0360E-5	 1.0400E-5	7.552589E-6	7.558885E-6	7.568430E-6	7.524573E-6	7.558469E-6	  -20.0211	    7.4828	    9.2426	  -23.0385	
  540.0000	 1.0610E-5	 1.0600E-5	 1.0580E-5	 1.0620E-5	 1.0640E-5	7.581698E-6	7.599806E-6	7.617672E-6	7.552342E-6	7.556971E-6	  -20.0109	    7.4218	    9.2479	  -23.0788	
  560.0000	 1.0858E-5	 1.0840E-5	 1.0840E-5	 1.0890E-5	 1.0860E-5	7.628321E-6	7.627575E-6	7.614438E-6	7.633714E-6	7.637559E-6	  -20.0186	    7.4218	    9.2577	  -23.0669	
  580.0000	 1.1305E-5	 1.1290E-5	 1.1330E-5	 1.1280E-5	 1.1320E-5	7.683857E-6	7.709874E-6	7.698024E-6	7.693714E-6	7.633815E-6	  -20.0160	    7.4660	    9.2581	  -23.0326	
  600.0000	 1.1770E-5	 1.1770E-5	 1.1790E-5	 1.1750E-5	 1.1770E-5	7.675217E-6	7.662647E-6	7.663773E-6	7.673915E-6	7.700534E-6	  -20.0160	    7.4792	    9.2679	  -23.0106	
  620.0000	 1.2418E-5	 1.2340E-5	 1.2410E-5	 1.2440E-5	 1.2480E-5	7.713976E-6	7.745942E-6	7.709712E-6	7.714073E-6	7.686178E-6	  -20.0084	    7.4966	    9.2793	  -22.9834	
  640.0000	 1.3175E-5	 1.3160E-5	 1.3170E-5	 1.3110E-5	 1.3260E-5	7.755288E-6	7.775519E-6	7.750705E-6	7.753346E-6	7.741581E-6	  -20.0008	    7.4425	    9.2783	  -23.0262	
  660.0000	 1.4190E-5	 1.4100E-5	 1.4210E-5	 1.4250E-5	 1.4200E-5	7.796202E-6	7.767446E-6	7.783151E-6	7.816189E-6	7.818021E-6	  -19.9753	    7.4013	    9.2732	  -23.0639	
  680.0000	 1.5270E-5	 1.5170E-5	 1.5240E-5	 1.5300E-5	 1.5370E-5	7.776528E-6	7.783259E-6	7.775790E-6	7.773590E-6	7.773471E-6	  -19.9575	    7.3823	    9.2764	  -23.0747	
  700.0000	 1.6458E-5	 1.6460E-5	 1.6440E-5	 1.6430E-5	 1.6500E-5	7.758907E-6	7.765264E-6	7.757196E-6	7.745911E-6	7.767258E-6	  -19.9830	    7.4402	    9.2843	  -23.0207	
  720.0000	 1.7720E-5	 1.7720E-5	 1.7690E-5	 1.7750E-5	 1.7720E-5	7.804088E-6	7.784516E-6	7.802630E-6	7.816598E-6	7.812608E-6	  -19.9982	    7.4660	    9.2821	  -23.0035	
  740.0000	 1.9005E-5	 1.8990E-5	 1.8990E-5	 1.9030E-5	 1.9010E-5	7.838093E-6	7.809449E-6	7.839581E-6	7.857128E-6	7.846215E-6	  -20.0084	    7.5019	    9.2812	  -22.9771	
  760.0000	 2.0092E-5	 2.0140E-5	 2.0040E-5	 2.0110E-5	 2.0080E-5	7.831595E-6	7.820596E-6	7.845642E-6	7.833896E-6	7.826246E-6	  -19.9982	    7.5199	    9.2992	  -22.9414	
  780.0000	 2.1188E-5	 2.1210E-5	 2.1160E-5	 2.1190E-5	 2.1190E-5	7.839772E-6	7.804414E-6	7.843159E-6	7.853932E-6	7.857582E-6	  -19.9906	    7.4310	    9.3052	  -23.0025	
  800.0000	 2.2320E-5	 2.2300E-5	 2.2360E-5	 2.2300E-5	 2.2320E-5	7.873798E-6	7.833093E-6	7.850267E-6	7.924106E-6	7.887728E-6	  -19.9830	    7.4105	    9.3074	  -23.0155	
  820.0000	 2.3410E-5	 2.3380E-5	 2.3450E-5	 2.3460E-5	 2.3350E-5	7.916544E-6	7.905359E-6	7.895793E-6	7.928436E-6	7.936588E-6	  -19.9982	    7.4206	    9.3087	  -23.0063	
  840.0000	 2.4450E-5	 2.4460E-5	 2.4430E-5	 2.4510E-5	 2.4400E-5	7.918579E-6	7.912006E-6	7.939760E-6	7.914083E-6	7.908469E-6	  -20.0186	    7.4588	    9.3020	  -22.9849	
  860.0000	 2.5437E-5	 2.5380E-5	 2.5430E-5	 2.5420E-5	 2.5520E-5	7.947270E-6	7.946450E-6	7.945901E-6	7.926264E-6	7.970465E-6	  -20.0160	    7.4046	    9.2910	  -23.0400	
  880.0000	 2.6473E-5	 2.6390E-5	 2.6520E-5	 2.6530E-5	 2.6450E-5	7.989103E-6	7.974786E-6	7.989343E-6	7.993957E-6	7.998327E-6	  -20.0262	    7.3917	    9.2913	  -23.0495	
  900.0000	 2.7475E-5	 2.7510E-5	 2.7430E-5	 2.7580E-5	 2.7380E-5	7.981977E-6	7.987756E-6	8.012837E-6	7.996042E-6	7.931275E-6	  -20.0160	    7.4426	    9.2732	  -23.0322	
  920.0000	 2.8488E-5	 2.8370E-5	 2.8470E-5	 2.8550E-5	 2.8560E-5	8.082496E-6	8.060430E-6	8.068851E-6	8.088497E-6	8.112208E-6	  -20.0135	    7.4088	    9.2799	  -23.0501	
  940.0000	 2.9350E-5	 2.9330E-5	 2.9420E-5	 2.9330E-5	 2.9320E-5	8.047352E-6	8.081804E-6	8.075284E-6	8.029634E-6	8.002685E-6	  -20.0160	    7.3645	    9.2609	  -23.1071	
  960.0000	 3.0255E-5	 3.0150E-5	 3.0260E-5	 3.0330E-5	 3.0280E-5	8.084527E-6	8.071196E-6	8.080522E-6	8.096093E-6	8.090299E-6	  -20.0109	    7.3759	    9.2701	  -23.0872	
  980.0000	 3.0875E-5	 3.1120E-5	 3.1130E-5	 3.0830E-5	 3.0420E-5	8.168347E-6	8.190476E-6	8.158163E-6	8.183551E-6	8.141198E-6	  -20.0160	    7.3496	    9.2606	  -23.1190	
 1000.0000	 3.2065E-5	 3.1970E-5	 3.2160E-5	 3.2140E-5	 3.1990E-5	8.160188E-6	8.156198E-6	8.208138E-6	8.134822E-6	8.141592E-6	  -19.9982	    7.3465	    9.2495	  -23.1347	
 1020.0000	 3.3050E-5	 3.3060E-5	 3.3140E-5	 3.3000E-5	 3.3000E-5	8.229560E-6	8.272960E-6	8.236916E-6	8.189694E-6	8.218670E-6	  -20.0008	    7.3315	    9.2571	  -23.1370	
 1040.0000	 3.3808E-5	 3.3730E-5	 3.3790E-5	 3.3900E-5	 3.3810E-5	8.281876E-6	8.284520E-6	8.269568E-6	8.270457E-6	8.302959E-6	  -20.0135	    7.3590	    9.2470	  -23.1282	
 1060.0000	 3.5677E-5	 3.5690E-5	 3.5670E-5	 3.5660E-5	 3.5690E-5	8.334403E-6	8.322970E-6	8.345878E-6	8.320361E-6	8.348403E-6	  -20.0059	    7.3674	    9.2372	  -23.1337	
 1080.0000	 3.6487E-5	 3.6490E-5	 3.6590E-5	 3.6470E-5	 3.6400E-5	8.310103E-6	8.312533E-6	8.287331E-6	8.317777E-6	8.322772E-6	  -20.0008	    7.4082	    9.2419	  -23.0966	
 1100.0000	 3.7303E-5	 3.7450E-5	 3.7320E-5	 3.7240E-5	 3.7200E-5	8.430808E-6	8.415629E-6	8.430419E-6	8.444440E-6	8.432745E-6	  -19.9931	    7.3142	    9.2312	  -23.1818	
