GCD Test
Bias: 5000.000000
IV_D0_CO144_LargeDiode_GRConnected_Irradiated
Date/Time: 7/29/2021 3:23:24 PM
Sensor Name: CO144
Type: N
Annealing Status: Irradiated not Annealed
Environment: -20C
Tester: Andrew Kent

Time Delay per Ramp Step (s): 0.500

CV Time Delay per Measurement (s) :0.500

AC Voltage (V): 0.500

Current Number of measurements per voltage: 4.000

IV Time Delay per Measurement (s) :0.000


BiasVoltage	Total Current_Avg	Total Current_0	Total Current_1	Total Current_2	Total Current_3	Bias Current_Avg	Bias Current_0	Bias Current_1	Bias Current_2	Bias Current_3	Temperature	Air_Temp	Humidity	Dewpoint	
    1.0000	 5.4532E-7	 5.4510E-7	 5.4670E-7	 5.4560E-7	 5.4390E-7	5.642641E-7	5.627097E-7	5.654924E-7	5.641940E-7	5.646604E-7	  -19.9906	    6.6894	    8.9298	  -24.0315	
    2.0000	 1.0357E-6	 1.0360E-6	 1.0390E-6	 1.0360E-6	 1.0320E-6	1.033480E-6	1.032542E-6	1.031269E-6	1.036324E-6	1.033786E-6	  -20.0109	    6.6367	    8.9247	  -24.0782	
    3.0000	 1.3468E-6	 1.3460E-6	 1.3430E-6	 1.3480E-6	 1.3500E-6	1.351809E-6	1.349326E-6	1.349940E-6	1.353598E-6	1.354372E-6	  -20.0618	    6.7195	    8.9507	  -23.9825	
    4.0000	 1.5780E-6	 1.5800E-6	 1.5820E-6	 1.5750E-6	 1.5750E-6	1.573741E-6	1.570948E-6	1.570989E-6	1.575012E-6	1.578015E-6	  -20.1432	    6.7765	    9.0639	  -23.7988	
    5.0000	 1.7782E-6	 1.7790E-6	 1.7740E-6	 1.7790E-6	 1.7810E-6	1.776365E-6	1.774748E-6	1.778039E-6	1.775786E-6	1.776886E-6	  -20.1814	    6.8624	    9.0980	  -23.6910	
    6.0000	 1.9518E-6	 1.9520E-6	 1.9590E-6	 1.9510E-6	 1.9450E-6	1.949980E-6	1.950626E-6	1.957384E-6	1.944921E-6	1.946991E-6	  -20.2322	    6.9050	    9.2008	  -23.5328	
    7.0000	 2.1143E-6	 2.1070E-6	 2.1120E-6	 2.1250E-6	 2.1130E-6	2.126956E-6	2.122300E-6	2.127383E-6	2.125347E-6	2.132796E-6	  -20.2755	    6.9523	    9.2644	  -23.4194	
    8.0000	 2.2795E-6	 2.2800E-6	 2.2880E-6	 2.2800E-6	 2.2700E-6	2.278956E-6	2.274033E-6	2.275532E-6	2.284981E-6	2.281278E-6	  -20.3085	    6.9470	    9.3340	  -23.3398	
    9.0000	 2.4382E-6	 2.4350E-6	 2.4470E-6	 2.4390E-6	 2.4320E-6	2.419672E-6	2.423352E-6	2.428315E-6	2.415559E-6	2.411462E-6	  -20.3238	    6.9035	    9.3855	  -23.3115	
   10.0000	 2.5720E-6	 2.5640E-6	 2.5700E-6	 2.5750E-6	 2.5790E-6	2.572944E-6	2.581252E-6	2.583326E-6	2.571781E-6	2.555415E-6	  -20.3492	    6.9725	    9.4273	  -23.2087	
   20.0000	 3.8447E-6	 3.8560E-6	 3.8500E-6	 3.8330E-6	 3.8400E-6	3.837435E-6	3.855364E-6	3.826558E-6	3.830154E-6	3.837662E-6	  -20.3619	    6.9529	    9.5104	  -23.1253	
   30.0000	 4.8927E-6	 4.8870E-6	 4.8800E-6	 4.8930E-6	 4.9110E-6	4.887973E-6	4.897370E-6	4.891523E-6	4.879128E-6	4.883870E-6	  -20.3441	    6.9529	    9.5569	  -23.0706	
   40.0000	 5.8295E-6	 5.8540E-6	 5.8240E-6	 5.8230E-6	 5.8170E-6	5.839899E-6	5.842594E-6	5.865140E-6	5.848182E-6	5.803681E-6	  -20.3390	    6.9838	    9.5775	  -23.0227	
   50.0000	 6.7080E-6	 6.6990E-6	 6.7000E-6	 6.7380E-6	 6.6950E-6	6.710364E-6	6.698416E-6	6.686397E-6	6.720771E-6	6.735873E-6	  -20.3136	    6.9822	    9.6240	  -22.9695	
   60.0000	 7.5383E-6	 7.5270E-6	 7.5240E-6	 7.5640E-6	 7.5380E-6	7.542811E-6	7.511852E-6	7.529994E-6	7.578660E-6	7.550739E-6	  -20.2856	    7.0058	    9.6619	  -22.9070	
   70.0000	 8.3235E-6	 8.3570E-6	 8.3430E-6	 8.3070E-6	 8.2870E-6	8.306733E-6	8.246542E-6	8.295428E-6	8.345477E-6	8.339483E-6	  -20.2551	    6.9955	    9.6746	  -22.9003	
   80.0000	 9.0998E-6	 9.0890E-6	 9.0910E-6	 9.1110E-6	 9.1080E-6	9.056094E-6	9.082602E-6	9.062467E-6	9.046145E-6	9.033164E-6	  -20.2221	    7.0359	    9.7024	  -22.8368	
   90.0000	 9.7990E-6	 9.8060E-6	 9.8040E-6	 9.8010E-6	 9.7850E-6	9.842812E-6	9.862612E-6	9.850923E-6	9.827420E-6	9.830293E-6	  -20.2042	    7.0002	    9.7075	  -22.8585	
  100.0000	 1.0522E-5	 1.0500E-5	 1.0520E-5	 1.0520E-5	 1.0550E-5	1.056049E-5	1.051160E-5	1.055299E-5	1.058853E-5	1.058886E-5	  -20.1534	    7.0079	    9.7170	  -22.8416	
  120.0000	 1.1883E-5	 1.1830E-5	 1.1880E-5	 1.1920E-5	 1.1900E-5	1.192614E-5	1.195653E-5	1.192126E-5	1.192319E-5	1.190358E-5	  -20.1152	    7.0342	    9.7460	  -22.7876	
  140.0000	 1.3135E-5	 1.3070E-5	 1.3140E-5	 1.3140E-5	 1.3190E-5	1.322607E-5	1.320093E-5	1.324201E-5	1.324776E-5	1.321357E-5	  -20.0847	    7.0486	    9.7590	  -22.7615	
  160.0000	 1.4380E-5	 1.4350E-5	 1.4340E-5	 1.4400E-5	 1.4430E-5	1.438060E-5	1.437427E-5	1.433597E-5	1.440011E-5	1.441204E-5	  -20.0567	    6.9721	    9.7701	  -22.8078	
  180.0000	 1.5580E-5	 1.5610E-5	 1.5500E-5	 1.5570E-5	 1.5640E-5	1.563543E-5	1.568163E-5	1.560130E-5	1.561772E-5	1.564107E-5	  -20.0135	    7.0174	    9.7764	  -22.7656	
  200.0000	 1.6800E-5	 1.6820E-5	 1.6830E-5	 1.6770E-5	 1.6780E-5	1.678640E-5	1.678276E-5	1.675627E-5	1.682845E-5	1.677814E-5	  -19.9880	    6.9899	    9.7916	  -22.7694	
  220.0000	 1.7890E-5	 1.7920E-5	 1.7880E-5	 1.7870E-5	 1.7890E-5	1.789026E-5	1.786456E-5	1.787365E-5	1.788151E-5	1.794133E-5	  -19.9321	    6.9794	    9.7935	  -22.7753	
  240.0000	 1.9085E-5	 1.9080E-5	 1.9100E-5	 1.9090E-5	 1.9070E-5	1.908644E-5	1.902499E-5	1.903737E-5	1.910584E-5	1.917757E-5	  -19.9194	    6.9668	    9.8112	  -22.7647	
  260.0000	 2.0003E-5	 1.9980E-5	 1.9940E-5	 2.0060E-5	 2.0030E-5	2.007042E-5	1.999219E-5	2.010966E-5	2.008238E-5	2.009745E-5	  -19.8914	    6.9806	    9.8065	  -22.7595	
  280.0000	 2.1097E-5	 2.1090E-5	 2.1110E-5	 2.1130E-5	 2.1060E-5	2.108727E-5	2.105069E-5	2.113591E-5	2.110653E-5	2.105593E-5	  -19.8659	    6.9832	    9.8128	  -22.7502	
  300.0000	 2.2180E-5	 2.2300E-5	 2.2110E-5	 2.2110E-5	 2.2200E-5	2.220603E-5	2.210697E-5	2.229280E-5	2.219978E-5	2.222457E-5	  -19.8532	    7.0011	    9.8280	  -22.7190	
  320.0000	 2.3225E-5	 2.3160E-5	 2.3210E-5	 2.3260E-5	 2.3270E-5	2.324521E-5	2.325702E-5	2.319570E-5	2.328825E-5	2.323988E-5	  -19.8456	    6.9793	    9.8311	  -22.7322	
  340.0000	 2.4108E-5	 2.4140E-5	 2.4090E-5	 2.4070E-5	 2.4130E-5	2.418369E-5	2.416630E-5	2.427779E-5	2.417698E-5	2.411371E-5	  -19.8456	    7.0017	    9.8397	  -22.7051	
  360.0000	 2.5110E-5	 2.5100E-5	 2.5070E-5	 2.5170E-5	 2.5100E-5	2.497225E-5	2.502131E-5	2.507519E-5	2.494876E-5	2.484374E-5	  -19.8456	    7.0434	    9.8428	  -22.6692	
  380.0000	 2.6095E-5	 2.6050E-5	 2.6020E-5	 2.6130E-5	 2.6180E-5	2.612880E-5	2.617517E-5	2.609886E-5	2.619435E-5	2.604682E-5	  -19.8507	    7.0142	    9.8561	  -22.6766	
  400.0000	 2.7025E-5	 2.7050E-5	 2.6980E-5	 2.7010E-5	 2.7060E-5	2.696138E-5	2.693244E-5	2.694731E-5	2.698772E-5	2.697804E-5	  -19.8507	    6.9796	    9.8599	  -22.6990	
  420.0000	 2.7925E-5	 2.7820E-5	 2.7900E-5	 2.8030E-5	 2.7950E-5	2.796064E-5	2.794732E-5	2.803905E-5	2.794499E-5	2.791119E-5	  -19.8583	    6.8938	    9.8608	  -22.7643	
  440.0000	 2.8795E-5	 2.8850E-5	 2.8760E-5	 2.8730E-5	 2.8840E-5	2.876658E-5	2.872845E-5	2.879072E-5	2.878014E-5	2.876699E-5	  -19.8787	    6.9206	    9.8558	  -22.7493	
  460.0000	 2.9678E-5	 2.9740E-5	 2.9720E-5	 2.9620E-5	 2.9630E-5	2.966230E-5	2.965671E-5	2.959859E-5	2.970055E-5	2.969335E-5	  -19.8888	    6.9586	    9.8561	  -22.7196	
  480.0000	 3.0600E-5	 3.0650E-5	 3.0580E-5	 3.0660E-5	 3.0510E-5	3.052649E-5	3.038699E-5	3.048143E-5	3.062021E-5	3.061734E-5	  -19.9041	    6.9883	    9.8552	  -22.6978	
  500.0000	 3.1637E-5	 3.1550E-5	 3.1700E-5	 3.1720E-5	 3.1580E-5	3.143288E-5	3.142778E-5	3.144520E-5	3.141964E-5	3.143890E-5	  -19.9168	    6.9808	    9.8561	  -22.7024	
  520.0000	 3.2478E-5	 3.2520E-5	 3.2510E-5	 3.2490E-5	 3.2390E-5	3.234249E-5	3.232593E-5	3.240399E-5	3.231830E-5	3.232174E-5	  -19.9473	    6.9634	    9.8507	  -22.7220	
  540.0000	 3.3680E-5	 3.3770E-5	 3.3780E-5	 3.3670E-5	 3.3500E-5	3.339113E-5	3.340355E-5	3.342989E-5	3.333865E-5	3.339241E-5	  -19.9601	    6.9686	    9.8599	  -22.7075	
  560.0000	 3.4670E-5	 3.4680E-5	 3.4620E-5	 3.4720E-5	 3.4660E-5	3.460854E-5	3.461585E-5	3.462619E-5	3.465381E-5	3.453831E-5	  -19.9880	    6.9526	    9.8672	  -22.7116	
  580.0000	 3.5730E-5	 3.5640E-5	 3.5620E-5	 3.5850E-5	 3.5810E-5	3.565426E-5	3.572435E-5	3.572231E-5	3.554667E-5	3.562370E-5	  -20.0059	    7.0276	    9.8681	  -22.6525	
  600.0000	 3.6812E-5	 3.6880E-5	 3.6830E-5	 3.6760E-5	 3.6780E-5	3.672174E-5	3.683554E-5	3.669748E-5	3.662393E-5	3.673001E-5	  -20.0186	    6.9997	    9.8789	  -22.6619	
  620.0000	 3.8128E-5	 3.8280E-5	 3.8140E-5	 3.7960E-5	 3.8130E-5	3.787567E-5	3.781711E-5	3.794061E-5	3.786769E-5	3.787726E-5	  -20.0389	    6.9960	    9.8941	  -22.6474	
  640.0000	 3.9005E-5	 3.9100E-5	 3.8930E-5	 3.9010E-5	 3.8980E-5	3.898167E-5	3.895300E-5	3.892087E-5	3.903010E-5	3.902270E-5	  -20.0491	    6.9982	    9.9080	  -22.6299	
  660.0000	 4.0377E-5	 4.0410E-5	 4.0270E-5	 4.0360E-5	 4.0470E-5	3.990450E-5	4.005809E-5	3.980103E-5	3.977168E-5	3.998721E-5	  -20.0542	    7.0010	    9.9124	  -22.6227	
  680.0000	 4.1445E-5	 4.1530E-5	 4.1360E-5	 4.1470E-5	 4.1420E-5	4.108434E-5	4.115260E-5	4.108313E-5	4.101235E-5	4.108928E-5	  -20.0694	    6.9835	    9.9355	  -22.6100	
  700.0000	 4.2405E-5	 4.2250E-5	 4.2400E-5	 4.2470E-5	 4.2500E-5	4.219263E-5	4.234723E-5	4.214950E-5	4.209563E-5	4.217814E-5	  -20.0923	    6.9404	    9.9311	  -22.6483	
  720.0000	 4.3647E-5	 4.3760E-5	 4.3680E-5	 4.3590E-5	 4.3560E-5	4.344611E-5	4.309705E-5	4.347229E-5	4.360250E-5	4.361258E-5	  -20.0923	    6.9521	    9.9472	  -22.6209	
  740.0000	 4.4927E-5	 4.5060E-5	 4.4880E-5	 4.4840E-5	 4.4930E-5	4.452627E-5	4.462928E-5	4.457771E-5	4.445869E-5	4.443940E-5	  -20.0949	    6.9872	    9.9481	  -22.5927	
  760.0000	 4.6140E-5	 4.6250E-5	 4.6080E-5	 4.6120E-5	 4.6110E-5	4.568040E-5	4.587980E-5	4.570375E-5	4.555087E-5	4.558719E-5	  -20.0974	    6.9273	    9.9602	  -22.6255	
  780.0000	 4.7310E-5	 4.7220E-5	 4.7240E-5	 4.7440E-5	 4.7340E-5	4.704589E-5	4.713164E-5	4.693017E-5	4.709153E-5	4.703024E-5	  -20.1025	    6.9772	    9.9668	  -22.5794	
  800.0000	 4.8552E-5	 4.8570E-5	 4.8550E-5	 4.8450E-5	 4.8640E-5	4.817067E-5	4.816073E-5	4.802451E-5	4.829059E-5	4.820686E-5	  -20.0898	    6.9563	    9.9911	  -22.5680	
  820.0000	 4.9638E-5	 4.9490E-5	 4.9930E-5	 4.9650E-5	 4.9480E-5	4.925473E-5	4.911649E-5	4.910714E-5	4.937414E-5	4.942115E-5	  -20.0745	    7.0026	    9.9763	  -22.5490	
  840.0000	 5.1005E-5	 5.1110E-5	 5.1050E-5	 5.0920E-5	 5.0940E-5	5.039586E-5	5.052377E-5	5.051971E-5	5.028347E-5	5.025649E-5	  -20.0669	    6.9712	    9.9994	  -22.5472	
  860.0000	 5.2543E-5	 5.2520E-5	 5.2480E-5	 5.2500E-5	 5.2670E-5	5.193557E-5	5.208759E-5	5.192795E-5	5.185519E-5	5.187155E-5	  -20.0593	    6.9975	    9.9899	  -22.5375	
  880.0000	 5.3685E-5	 5.3580E-5	 5.3670E-5	 5.3820E-5	 5.3670E-5	5.334629E-5	5.336572E-5	5.341234E-5	5.329659E-5	5.331050E-5	  -20.0593	    7.0125	   10.0054	  -22.5084	
  900.0000	 5.5143E-5	 5.5230E-5	 5.5260E-5	 5.5030E-5	 5.5050E-5	5.474788E-5	5.473191E-5	5.450577E-5	5.474346E-5	5.501038E-5	  -20.0516	    7.0239	    9.9987	  -22.5071	
  920.0000	 5.5965E-5	 5.5950E-5	 5.5820E-5	 5.5940E-5	 5.6150E-5	5.572584E-5	5.585624E-5	5.560059E-5	5.575517E-5	5.569136E-5	  -20.0491	    6.9954	   10.0013	  -22.5263	
  940.0000	 5.7788E-5	 5.7640E-5	 5.7760E-5	 5.7980E-5	 5.7770E-5	5.720138E-5	5.730250E-5	5.714242E-5	5.721435E-5	5.714626E-5	  -20.0287	    6.9986	    9.9915	  -22.5349	
  960.0000	 5.8877E-5	 5.8840E-5	 5.8850E-5	 5.8830E-5	 5.8990E-5	5.832691E-5	5.840857E-5	5.847121E-5	5.820420E-5	5.822366E-5	  -20.0160	    6.9270	    9.9924	  -22.5893	
  980.0000	 6.0035E-5	 6.0060E-5	 6.0020E-5	 6.0110E-5	 5.9950E-5	5.975567E-5	5.953401E-5	5.969880E-5	5.988354E-5	5.990632E-5	  -20.0084	    6.9433	    9.9953	  -22.5734	
 1000.0000	 6.1683E-5	 6.1830E-5	 6.1670E-5	 6.1600E-5	 6.1630E-5	6.109286E-5	6.105030E-5	6.097060E-5	6.103380E-5	6.131672E-5	  -20.0008	    6.9370	    9.9883	  -22.5862	
 1020.0000	 6.3075E-5	 6.3140E-5	 6.3040E-5	 6.3160E-5	 6.2960E-5	6.253639E-5	6.249591E-5	6.254566E-5	6.265650E-5	6.244751E-5	  -19.9906	    6.9280	    9.9965	  -22.5839	
 1040.0000	 6.4335E-5	 6.4370E-5	 6.4260E-5	 6.4390E-5	 6.4320E-5	6.374040E-5	6.367173E-5	6.377939E-5	6.365624E-5	6.385423E-5	  -19.9931	    6.9261	    9.9892	  -22.5935	
 1060.0000	 6.5802E-5	 6.5800E-5	 6.6030E-5	 6.5760E-5	 6.5620E-5	6.481890E-5	6.475842E-5	6.479342E-5	6.471206E-5	6.501169E-5	  -19.9880	    6.9389	    9.9956	  -22.5765	
 1080.0000	 6.7055E-5	 6.7380E-5	 6.7120E-5	 6.6910E-5	 6.6810E-5	6.631205E-5	6.632681E-5	6.620950E-5	6.620729E-5	6.650458E-5	  -19.9931	    6.9581	    9.9883	  -22.5699	
 1100.0000	 6.8525E-5	 6.8340E-5	 6.8590E-5	 6.8540E-5	 6.8630E-5	6.798456E-5	6.799613E-5	6.810662E-5	6.808172E-5	6.775377E-5	  -19.9804	    6.8738	    9.9801	  -22.6444	
