GCD Test
Bias: 5000.000000
CV_D0_CO138_LargeDiode_GRConnected_Irradiated_460min
Date/Time: 8/24/2021 5:18:56 PM
Sensor Name: Pin153
Type: N
Annealing Status: Irradiated, Annealed at 60C for 460 minutes
Environment: -20C
Tester: Andrew Kent

Time Delay per Ramp Step (s): 0.500

CV Time Delay per Measurement (s) :0.500

AC Voltage (V): 0.500

Current Number of measurements per voltage: 4.000

IV Time Delay per Measurement (s) :0.000


BiasVoltage	LCR_Cp_freq1000.0	LCR_Cp_freq10000.0	LCR_Rp_freq1000.0	LCR_Rp_freq10000.0	Temperature	Air_Temp	Humidity	Dewpoint	
    1.0000	4.096E-11	2.034E-11	1.607E+6	1.342E+6	  -19.9524	    9.5197	    3.6382	  -31.6031	
    2.0000	4.476E-11	2.037E-11	1.707E+6	1.377E+6	  -19.9626	    9.5297	    3.6256	  -31.6322	
    3.0000	4.743E-11	2.038E-11	1.768E+6	1.409E+6	  -19.9677	    9.5489	    3.6341	  -31.5945	
    4.0000	4.846E-11	2.039E-11	1.853E+6	1.431E+6	  -19.9830	    9.5594	    3.6173	  -31.6351	
    5.0000	4.949E-11	2.039E-11	1.916E+6	1.467E+6	  -20.0287	    9.5088	    3.6006	  -31.7184	
    6.0000	5.013E-11	2.040E-11	1.977E+6	1.493E+6	  -20.0364	    9.5733	    3.5822	  -31.7263	
    7.0000	5.062E-11	2.042E-11	2.034E+6	1.516E+6	  -20.0465	    9.5494	    3.5705	  -31.7767	
    8.0000	5.105E-11	2.044E-11	2.088E+6	1.544E+6	  -20.0593	    9.5861	    3.5563	  -31.7926	
    9.0000	5.114E-11	2.046E-11	2.151E+6	1.570E+6	  -20.0516	    9.5052	    3.5468	  -31.8763	
   10.0000	5.125E-11	2.048E-11	2.212E+6	1.588E+6	  -20.0440	    9.5776	    3.5408	  -31.8435	
   20.0000	5.115E-11	2.063E-11	2.781E+6	1.734E+6	  -20.0059	    9.5432	    3.5240	  -31.9165	
   30.0000	5.044E-11	2.065E-11	3.206E+6	1.846E+6	  -19.9804	    9.4616	    3.5180	  -31.9907	
   40.0000	4.931E-11	2.065E-11	3.582E+6	1.936E+6	  -19.9677	    9.5054	    3.5073	  -31.9919	
   50.0000	4.827E-11	2.064E-11	3.919E+6	2.027E+6	  -19.9168	    9.5106	    3.4858	  -32.0517	
   60.0000	4.731E-11	2.061E-11	4.230E+6	2.121E+6	  -19.9168	    9.5360	    3.4861	  -32.0332	
   70.0000	4.610E-11	2.059E-11	4.546E+6	2.213E+6	  -19.9270	    9.5029	    3.4709	  -32.1011	
   80.0000	4.509E-11	2.057E-11	4.843E+6	2.294E+6	  -19.9448	    9.4992	    3.4554	  -32.1498	
   90.0000	4.400E-11	2.054E-11	5.147E+6	2.391E+6	  -19.9779	    9.4327	    3.4428	  -32.2336	
  100.0000	4.318E-11	2.053E-11	5.427E+6	2.462E+6	  -20.0313	    9.4661	    3.4345	  -32.2351	
  120.0000	4.158E-11	2.049E-11	6.013E+6	2.635E+6	  -20.0669	    9.4534	    3.4273	  -32.2657	
  140.0000	4.030E-11	2.046E-11	6.580E+6	2.780E+6	  -20.0694	    9.4262	    3.4156	  -32.3197	
  160.0000	3.909E-11	2.043E-11	7.169E+6	2.946E+6	  -20.0720	    9.4262	    3.4042	  -32.3540	
  180.0000	3.796E-11	2.041E-11	7.778E+6	3.100E+6	  -20.0669	    9.4094	    3.3950	  -32.3934	
  200.0000	3.711E-11	2.039E-11	8.377E+6	3.262E+6	  -20.0440	    9.4689	    3.3909	  -32.3647	
  220.0000	3.620E-11	2.038E-11	9.008E+6	3.399E+6	  -20.0160	    9.4642	    3.3846	  -32.3871	
  240.0000	3.541E-11	2.035E-11	9.639E+6	3.574E+6	  -19.9957	    9.3813	    3.3871	  -32.4368	
  260.0000	3.471E-11	2.034E-11	1.027E+7	3.711E+6	  -19.9524	    9.3906	    3.3795	  -32.4534	
  280.0000	3.392E-11	2.031E-11	1.094E+7	3.899E+6	  -19.9397	    9.4064	    3.3928	  -32.4022	
  300.0000	3.329E-11	2.029E-11	1.159E+7	4.084E+6	  -19.9346	    9.3859	    3.3941	  -32.4125	
  320.0000	3.260E-11	2.025E-11	1.227E+7	4.310E+6	  -19.9397	    9.3175	    3.4086	  -32.4159	
  340.0000	3.191E-11	2.023E-11	1.299E+7	4.492E+6	  -19.9626	    9.3257	    3.4102	  -32.4054	
  360.0000	3.126E-11	2.019E-11	1.372E+7	4.731E+6	  -19.9830	    9.3701	    3.4190	  -32.3481	
  380.0000	3.074E-11	2.017E-11	1.442E+7	4.968E+6	  -19.9931	    9.3759	    3.4080	  -32.3774	
  400.0000	3.020E-11	2.014E-11	1.518E+7	5.208E+6	  -20.0415	    9.3456	    3.3982	  -32.4280	
  420.0000	2.963E-11	2.012E-11	1.600E+7	5.456E+6	  -20.0567	    9.3193	    3.3849	  -32.4864	
  440.0000	2.911E-11	2.008E-11	1.685E+7	5.759E+6	  -20.0694	    9.3261	    3.3779	  -32.5028	
  460.0000	2.861E-11	2.006E-11	1.774E+7	6.051E+6	  -20.0644	    9.3506	    3.3580	  -32.5466	
  480.0000	2.814E-11	2.004E-11	1.870E+7	6.376E+6	  -20.0542	    9.3093	    3.3514	  -32.5954	
  500.0000	2.766E-11	2.002E-11	1.972E+7	6.722E+6	  -20.0237	    9.4037	    3.3454	  -32.5486	
  520.0000	2.720E-11	2.000E-11	2.083E+7	7.041E+6	  -19.9779	    9.3548	    3.3197	  -32.6612	
  540.0000	2.673E-11	1.998E-11	2.203E+7	7.516E+6	  -19.9575	    9.3595	    3.3172	  -32.6658	
  560.0000	2.627E-11	1.995E-11	2.335E+7	8.025E+6	  -19.9524	    9.3093	    3.3156	  -32.7053	
  580.0000	2.581E-11	1.993E-11	2.481E+7	8.573E+6	  -19.9550	    9.2580	    3.3128	  -32.7495	
  600.0000	2.536E-11	1.990E-11	2.639E+7	9.230E+6	  -19.9423	    9.2567	    3.3140	  -32.7465	
  620.0000	2.492E-11	1.989E-11	2.805E+7	9.906E+6	  -19.9626	    9.3463	    3.3156	  -32.6798	
  640.0000	2.451E-11	1.987E-11	2.994E+7	1.068E+7	  -19.9855	    9.3830	    3.3166	  -32.6515	
  660.0000	2.407E-11	1.985E-11	3.198E+7	1.159E+7	  -20.0059	    9.3077	    3.3131	  -32.7143	
  680.0000	2.369E-11	1.984E-11	3.408E+7	1.248E+7	  -20.0135	    9.3077	    3.3128	  -32.7152	
  700.0000	2.331E-11	1.983E-11	3.657E+7	1.351E+7	  -20.0313	    9.2882	    3.3204	  -32.7053	
  720.0000	2.294E-11	1.982E-11	3.923E+7	1.464E+7	  -20.0567	    9.3060	    3.3115	  -32.7203	
  740.0000	2.259E-11	1.980E-11	4.226E+7	1.596E+7	  -20.0567	    9.3443	    3.3144	  -32.6851	
  760.0000	2.226E-11	1.979E-11	4.565E+7	1.728E+7	  -20.0364	    9.3626	    3.3178	  -32.6861	
  780.0000	2.197E-11	1.979E-11	4.907E+7	1.871E+7	  -20.0211	    9.3747	    3.3197	  -32.6475	
  800.0000	2.170E-11	1.978E-11	5.309E+7	2.021E+7	  -19.9982	    9.4344	    3.3226	  -32.5975	
  820.0000	2.147E-11	1.978E-11	5.698E+7	2.174E+7	  -19.9855	    9.3391	    3.3197	  -32.6720	
  840.0000	2.128E-11	1.979E-11	6.117E+7	2.307E+7	  -19.9702	    9.2653	    3.3318	  -32.6859	
  860.0000	2.111E-11	1.980E-11	6.529E+7	2.439E+7	  -19.9575	    9.2917	    3.3270	  -32.6823	
  880.0000	2.098E-11	1.981E-11	6.877E+7	2.544E+7	  -19.9473	    9.2921	    3.3242	  -32.6908	
  900.0000	2.089E-11	1.983E-11	7.168E+7	2.643E+7	  -19.9550	    9.2283	    3.3014	  -32.8053	
  920.0000	2.082E-11	1.985E-11	7.367E+7	2.692E+7	  -19.9753	    9.2005	    3.3150	  -32.7824	
  940.0000	2.080E-11	1.988E-11	7.318E+7	2.700E+7	  -19.9880	    9.2065	    3.3251	  -32.7470	
  960.0000	2.080E-11	1.991E-11	7.068E+7	2.653E+7	  -20.0008	    9.2690	    3.3273	  -32.6970	
  980.0000	2.087E-11	1.994E-11	6.574E+7	2.545E+7	  -20.0415	    9.2909	    3.3393	  -32.6450	
 1000.0000	2.097E-11	1.998E-11	6.091E+7	2.410E+7	  -20.0465	    9.2839	    3.3216	  -32.7043	
 1020.0000	2.114E-11	2.002E-11	5.550E+7	2.244E+7	  -20.0440	    9.2252	    3.3191	  -32.7526	
 1040.0000	2.136E-11	2.006E-11	5.022E+7	2.019E+7	  -20.0364	    9.2602	    3.3068	  -32.7666	
 1060.0000	2.164E-11	2.012E-11	4.466E+7	1.804E+7	  -20.0084	    9.2602	    3.2906	  -32.8167	
 1080.0000	2.202E-11	2.019E-11	3.976E+7	1.568E+7	  -19.9880	    9.1704	    3.2691	  -32.9456	
 1100.0000	2.247E-11	2.030E-11	3.536E+7	1.349E+7	  -19.9804	    9.0694	    3.2669	  -33.0222	
