GCD Test
Bias: 5000.000000
IV_38874_044_2-S_HM_XX_DIODEHALFPSTOP_GR
Date/Time: 3/9/2022 12:02:50 PM
Sensor Name: 
Type: P
Annealing Status: Unirradiated
Environment: 20C
Tester: Andrew Kent

Time Delay per Ramp Step (s): 0.500

CV Time Delay per Measurement (s) :0.500

AC Voltage (V): 0.500

Current Number of measurements per voltage: 1.000

IV Time Delay per Measurement (s) :0.000


BiasVoltage	Total Current_Avg	Total Current_0	Bias Current_Avg	Bias Current_0	Temperature	Air_Temp	Humidity	Dewpoint	
  -10.0000	1.9300E-10	1.9300E-10	-1.870995E-11	-1.870995E-11	   19.9987	   21.9486	   18.3767	   -3.1566	
  -20.0000	4.8000E-11	4.8000E-11	-2.037549E-11	-2.037549E-11	   19.9961	   21.9483	   18.3378	   -3.1853	
  -30.0000	-1.4000E-11	-1.4000E-11	-2.207384E-11	-2.207384E-11	   19.9961	   21.9463	   18.3017	   -3.2132	
  -40.0000	-1.0700E-10	-1.0700E-10	-2.334743E-11	-2.334743E-11	   19.9987	   21.9469	   18.2717	   -3.2347	
  -50.0000	-1.6900E-10	-1.6900E-10	-2.417289E-11	-2.417289E-11	   19.9987	   21.9474	   18.2362	   -3.2603	
  -60.0000	-1.4200E-10	-1.4200E-10	-2.512422E-11	-2.512422E-11	   19.9987	   21.9474	   18.1784	   -3.2603	
  -70.0000	-2.4700E-10	-2.4700E-10	-2.600426E-11	-2.600426E-11	   19.9987	   21.9488	   18.1660	   -3.3017	
  -80.0000	-1.7600E-10	-1.7600E-10	-2.686779E-11	-2.686779E-11	   19.9987	   21.9453	   18.1546	   -3.3136	
  -90.0000	-2.5600E-10	-2.5600E-10	-2.714098E-11	-2.714098E-11	   19.9987	   21.9450	   18.1227	   -3.3222	
 -100.0000	-2.4300E-10	-2.4300E-10	-2.755614E-11	-2.755614E-11	   20.0013	   21.9488	   18.1167	   -3.3427	
 -110.0000	-2.4700E-10	-2.4700E-10	-2.858243E-11	-2.858243E-11	   20.0013	   21.9512	   18.1167	   -3.3452	
 -120.0000	-3.6500E-10	-3.6500E-10	-2.901796E-11	-2.901796E-11	   20.0039	   21.9461	   18.0958	   -3.3648	
 -130.0000	-3.4800E-10	-3.4800E-10	-2.966128E-11	-2.966128E-11	   20.0039	   21.9477	   18.0895	   -3.3681	
 -140.0000	-3.7400E-10	-3.7400E-10	-3.122866E-11	-3.122866E-11	   20.0039	   21.9504	   18.0816	   -3.3717	
 -150.0000	-3.2500E-10	-3.2500E-10	-3.298647E-11	-3.298647E-11	   20.0039	   21.9488	   18.0787	   -3.3752	
 -160.0000	-3.4100E-10	-3.4100E-10	-3.601810E-11	-3.601810E-11	   20.0039	   21.9510	   18.0740	   -3.3769	
 -170.0000	-3.6300E-10	-3.6300E-10	-3.972076E-11	-3.972076E-11	   20.0039	   21.9495	   18.0683	   -3.3823	
 -180.0000	-4.9900E-10	-4.9900E-10	-4.480949E-11	-4.480949E-11	   20.0013	   21.9488	   18.0553	   -3.3925	
 -190.0000	-4.6700E-10	-4.6700E-10	-4.908684E-11	-4.908684E-11	   19.9987	   21.9487	   18.0500	   -3.3966	
 -200.0000	-5.6600E-10	-5.6600E-10	-5.273204E-11	-5.273204E-11	   19.9987	   21.9483	   18.0436	   -3.4016	
 -210.0000	-4.6400E-10	-4.6400E-10	-5.483578E-11	-5.483578E-11	   19.9961	   21.9449	   18.0455	   -3.4029	
 -220.0000	-4.8400E-10	-4.8400E-10	-5.733022E-11	-5.733022E-11	   19.9961	   21.9490	   18.0493	   -3.3967	
 -230.0000	-5.1200E-10	-5.1200E-10	-5.853783E-11	-5.853783E-11	   19.9961	   21.9443	   18.0342	   -3.4118	
 -240.0000	-5.1800E-10	-5.1800E-10	-5.943518E-11	-5.943518E-11	   19.9961	   21.9468	   18.0256	   -3.4162	
 -250.0000	-5.9800E-10	-5.9800E-10	-6.080474E-11	-6.080474E-11	   19.9987	   21.9459	   18.0338	   -3.4108	
 -260.0000	-6.7700E-10	-6.7700E-10	-6.153911E-11	-6.153911E-11	   19.9987	   21.9432	   18.0275	   -3.4177	
 -270.0000	-5.8700E-10	-5.8700E-10	-6.273634E-11	-6.273634E-11	   20.0013	   21.9457	   18.0266	   -3.4163	
 -280.0000	-6.6500E-10	-6.6500E-10	-6.374983E-11	-6.374983E-11	   20.0013	   21.9457	   18.0266	   -3.4163	
 -290.0000	-6.0300E-10	-6.0300E-10	-6.406881E-11	-6.406881E-11	   20.0039	   21.9419	   18.0095	   -3.4321	
 -300.0000	-7.1300E-10	-7.1300E-10	-6.526561E-11	-6.526561E-11	   20.0064	   21.9419	   18.0288	   -3.4321	
 -310.0000	-7.4500E-10	-7.4500E-10	-6.532794E-11	-6.532794E-11	   20.0039	   21.9460	   18.0209	   -3.4144	
 -320.0000	-7.7200E-10	-7.7200E-10	-6.634672E-11	-6.634672E-11	   20.0064	   21.9432	   18.0152	   -3.4226	
 -330.0000	-7.9400E-10	-7.9400E-10	-6.734389E-11	-6.734389E-11	   20.0039	   21.9441	   18.0190	   -3.4261	
 -340.0000	-7.9100E-10	-7.9100E-10	-6.785763E-11	-6.785763E-11	   20.0013	   21.9443	   18.0237	   -3.4231	
 -350.0000	-7.7700E-10	-7.7700E-10	-6.866961E-11	-6.866961E-11	   19.9987	   21.9469	   18.0323	   -3.4175	
 -360.0000	-8.3000E-10	-8.3000E-10	-6.903225E-11	-6.903225E-11	   19.9987	   21.9446	   18.0281	   -3.4130	
 -370.0000	-8.3400E-10	-8.3400E-10	-6.915245E-11	-6.915245E-11	   19.9987	   21.9427	   18.0212	   -3.4176	
 -380.0000	-7.7100E-10	-7.7100E-10	-6.986523E-11	-6.986523E-11	   19.9987	   21.9437	   18.0310	   -3.4220	
 -390.0000	-7.6700E-10	-7.6700E-10	-7.074771E-11	-7.074771E-11	   19.9987	   21.9431	   18.0310	   -3.4151	
 -400.0000	-8.8300E-10	-8.8300E-10	-7.071001E-11	-7.071001E-11	   19.9987	   21.9466	   18.0383	   -3.4069	
 -420.0000	-8.9100E-10	-8.9100E-10	-7.223989E-11	-7.223989E-11	   19.9987	   21.9463	   18.0373	   -3.4079	
 -440.0000	-1.0460E-9	-1.0460E-9	-7.282332E-11	-7.282332E-11	   20.0013	   21.9443	   18.0414	   -3.4065	
 -460.0000	-1.2490E-9	-1.2490E-9	-7.380153E-11	-7.380153E-11	   20.0013	   21.9458	   18.0398	   -3.4064	
 -480.0000	-1.1660E-9	-1.1660E-9	-7.467933E-11	-7.467933E-11	   20.0064	   21.9458	   18.0348	   -3.4064	
 -500.0000	-1.2420E-9	-1.2420E-9	-7.578304E-11	-7.578304E-11	   20.0064	   21.9496	   18.0348	   -3.4071	
 -520.0000	-1.2660E-9	-1.2660E-9	-7.630762E-11	-7.630762E-11	   20.0039	   21.9416	   18.0278	   -3.4188	
 -540.0000	-1.3050E-9	-1.3050E-9	-7.724835E-11	-7.724835E-11	   20.0039	   21.9484	   18.0294	   -3.4120	
 -560.0000	-1.3330E-9	-1.3330E-9	-7.763924E-11	-7.763924E-11	   20.0039	   21.9452	   18.0332	   -3.4119	
 -580.0000	-1.4760E-9	-1.4760E-9	-7.785825E-11	-7.785825E-11	   20.0064	   21.9366	   18.0256	   -3.4245	
 -600.0000	-1.4390E-9	-1.4390E-9	-7.916912E-11	-7.916912E-11	   20.0064	   21.9366	   18.0348	   -3.4245	
 -620.0000	-1.5240E-9	-1.5240E-9	-7.947389E-11	-7.947389E-11	   20.0064	   21.9419	   18.0348	   -3.4133	
 -640.0000	-1.5160E-9	-1.5160E-9	-8.020075E-11	-8.020075E-11	   20.0039	   21.9438	   18.0395	   -3.4082	
 -660.0000	-1.6000E-9	-1.6000E-9	-8.093817E-11	-8.093817E-11	   20.0013	   21.9409	   18.0481	   -3.4043	
 -680.0000	-1.6190E-9	-1.6190E-9	-8.124228E-11	-8.124228E-11	   20.0013	   21.9409	   18.0557	   -3.4043	
 -700.0000	-1.7030E-9	-1.7030E-9	-8.195040E-11	-8.195040E-11	   20.0013	   21.9346	   18.0557	   -3.4038	
 -720.0000	-1.6860E-9	-1.6860E-9	-8.242627E-11	-8.242627E-11	   19.9961	   21.9393	   18.0560	   -3.3998	
 -740.0000	-1.7180E-9	-1.7180E-9	-8.343610E-11	-8.343610E-11	   19.9987	   21.9432	   18.0617	   -3.3924	
 -760.0000	-1.7420E-9	-1.7420E-9	-8.346235E-11	-8.346235E-11	   19.9987	   21.9444	   18.0500	   -3.4000	
 -780.0000	-1.7740E-9	-1.7740E-9	-8.389421E-11	-8.389421E-11	   19.9987	   21.9444	   18.0553	   -3.4000	
 -800.0000	-1.8770E-9	-1.8770E-9	-8.485550E-11	-8.485550E-11	   19.9987	   21.9442	   18.0553	   -3.3963	
 -820.0000	-1.8400E-9	-1.8400E-9	-8.524198E-11	-8.524198E-11	   19.9987	   21.9422	   18.0651	   -3.3906	
 -840.0000	-1.9600E-9	-1.9600E-9	-8.599369E-11	-8.599369E-11	   20.0013	   21.9422	   18.0750	   -3.3906	
 -860.0000	-1.9670E-9	-1.9670E-9	-8.648034E-11	-8.648034E-11	   20.0013	   21.9380	   18.0750	   -3.3868	
 -880.0000	-1.9580E-9	-1.9580E-9	-8.746222E-11	-8.746222E-11	   20.0013	   21.9388	   18.0604	   -3.3969	
 -900.0000	-2.0810E-9	-2.0810E-9	-8.801774E-11	-8.801774E-11	   20.0013	   21.9401	   18.0629	   -3.3940	
 -920.0000	-2.1510E-9	-2.1510E-9	-8.829825E-11	-8.829825E-11	   20.0013	   21.9401	   18.0629	   -3.3940	
 -940.0000	-2.2100E-9	-2.2100E-9	-8.891184E-11	-8.891184E-11	   20.0039	   21.9442	   18.0689	   -3.3862	
 -960.0000	-2.2880E-9	-2.2880E-9	-9.088500E-11	-9.088500E-11	   20.0039	   21.9442	   18.0658	   -3.3862	
 -980.0000	-2.2950E-9	-2.2950E-9	-9.005565E-11	-9.005565E-11	   20.0039	   21.9412	   18.0658	   -3.3910	
-1000.0000	-2.3230E-9	-2.3230E-9	-9.054825E-11	-9.054825E-11	   20.0064	   21.9461	   18.0686	   -3.3849	
