GCD Test
Bias: 5000.000000
CV_34253_036_PSS_HM_XX_DIODEHALFPSTOP
Date/Time: 4/26/2021 3:33:58 PM
Sensor Name: DIODEHALFPSTOP
Type: P
Annealing Status: Unirradiated
Environment: RT
Tester: Andrew Kent

Time Delay per Ramp Step (s): 0.500

CV Time Delay per Measurement (s) :0.500

AC Voltage (V): 0.500

Current Number of measurements per voltage: 1.000

IV Time Delay per Measurement (s) :0.000


BiasVoltage	LCR_Cp_freqNaN	LCR_Rp_freqNaN	Temperature	Air_Temp	Humidity	Dewpoint	
   -5.0000	2.173E-11	7.657E+8	   23.0707	   23.3997	   17.8978	   -2.3287	
  -10.0000	1.632E-11	5.669E+8	   23.0707	   23.3997	   17.8978	   -2.3287	
  -15.0000	1.406E-11	6.074E+8	   23.0707	   23.3997	   17.8839	   -2.3392	
  -20.0000	1.273E-11	6.265E+8	   23.0707	   23.4000	   17.8817	   -2.3406	
  -25.0000	1.189E-11	6.330E+8	   23.0707	   23.4016	   17.8890	   -2.3338	
  -30.0000	1.130E-11	6.288E+8	   23.0707	   23.4036	   17.8814	   -2.3379	
  -35.0000	1.081E-11	6.306E+8	   23.0707	   23.3965	   17.8890	   -2.3379	
  -40.0000	1.043E-11	6.384E+8	   23.0682	   23.4047	   17.8719	   -2.3441	
  -45.0000	1.012E-11	6.360E+8	   23.0707	   23.3987	   17.8574	   -2.3600	
  -50.0000	9.851E-12	6.301E+8	   23.0707	   23.3987	   17.8504	   -2.3653	
  -55.0000	9.616E-12	6.463E+8	   23.0707	   23.4019	   17.8735	   -2.3452	
  -60.0000	9.419E-12	6.533E+8	   23.0707	   23.4012	   17.8691	   -2.3492	
  -65.0000	9.234E-12	6.564E+8	   23.0707	   23.4028	   17.8776	   -2.3415	
  -70.0000	9.074E-12	6.540E+8	   23.0733	   23.3990	   17.8694	   -2.3507	
  -75.0000	8.933E-12	6.841E+8	   23.0707	   23.3963	   17.8681	   -2.3539	
  -80.0000	8.802E-12	6.799E+8	   23.0707	   23.3971	   17.8631	   -2.3570	
  -85.0000	8.683E-12	6.892E+8	   23.0707	   23.4021	   17.8725	   -2.3458	
  -90.0000	8.569E-12	7.093E+8	   23.0682	   23.3996	   17.8868	   -2.3371	
  -95.0000	8.459E-12	7.264E+8	   23.0707	   23.4010	   17.8741	   -2.3455	
 -100.0000	8.365E-12	7.343E+8	   23.0707	   23.4008	   17.8681	   -2.3502	
 -105.0000	8.267E-12	7.637E+8	   23.0707	   23.4013	   17.8514	   -2.3624	
 -110.0000	8.183E-12	7.696E+8	   23.0707	   23.4024	   17.8368	   -2.3725	
 -115.0000	8.097E-12	8.041E+8	   23.0707	   23.4047	   17.8419	   -2.3669	
 -120.0000	8.026E-12	8.058E+8	   23.0707	   23.4061	   17.8324	   -2.3729	
 -125.0000	7.954E-12	8.504E+8	   23.0707	   23.4023	   17.8327	   -2.3758	
 -130.0000	7.892E-12	8.587E+8	   23.0707	   23.4006	   17.8321	   -2.3776	
 -135.0000	7.839E-12	8.397E+8	   23.0707	   23.4041	   17.8343	   -2.3730	
 -140.0000	7.781E-12	8.602E+8	   23.0707	   23.4051	   17.8450	   -2.3641	
 -145.0000	7.725E-12	8.479E+8	   23.0707	   23.4032	   17.8182	   -2.3860	
 -150.0000	7.675E-12	8.817E+8	   23.0707	   23.4041	   17.8340	   -2.3733	
 -155.0000	7.630E-12	8.685E+8	   23.0707	   23.4058	   17.8210	   -2.3817	
 -160.0000	7.580E-12	8.779E+8	   23.0707	   23.4068	   17.8235	   -2.3791	
 -165.0000	7.534E-12	8.878E+8	   23.0707	   23.4029	   17.8267	   -2.3798	
 -170.0000	7.492E-12	9.020E+8	   23.0707	   23.4033	   17.8061	   -2.3950	
 -175.0000	7.452E-12	8.980E+8	   23.0707	   23.4066	   17.8027	   -2.3950	
 -180.0000	7.414E-12	9.048E+8	   23.0707	   23.4043	   17.8052	   -2.3949	
 -185.0000	7.376E-12	8.960E+8	   23.0707	   23.4078	   17.8210	   -2.3801	
 -190.0000	7.340E-12	8.934E+8	   23.0707	   23.4058	   17.8324	   -2.3731	
 -195.0000	7.304E-12	9.223E+8	   23.0707	   23.4058	   17.8324	   -2.3731	
 -200.0000	7.270E-12	9.165E+8	   23.0707	   23.4062	   17.8447	   -2.3635	
 -205.0000	7.236E-12	9.428E+8	   23.0707	   23.4068	   17.8634	   -2.3489	
 -210.0000	7.200E-12	9.802E+8	   23.0707	   23.4103	   17.8608	   -2.3480	
 -215.0000	7.170E-12	9.565E+8	   23.0707	   23.4102	   17.8697	   -2.3414	
 -220.0000	7.141E-12	9.265E+8	   23.0707	   23.4079	   17.8779	   -2.3370	
 -225.0000	7.110E-12	9.408E+8	   23.0707	   23.4082	   17.8643	   -2.3471	
 -230.0000	7.079E-12	9.489E+8	   23.0707	   23.4108	   17.8612	   -2.3473	
 -235.0000	7.056E-12	9.502E+8	   23.0707	   23.4103	   17.8450	   -2.3599	
 -240.0000	7.024E-12	9.591E+8	   23.0707	   23.4140	   17.8536	   -2.3505	
 -245.0000	7.002E-12	9.582E+8	   23.0707	   23.4140	   17.8536	   -2.3505	
 -250.0000	6.978E-12	9.519E+8	   23.0707	   23.4153	   17.8574	   -2.3465	
 -255.0000	6.967E-12	9.725E+8	   23.0707	   23.4153	   17.8707	   -2.3365	
 -260.0000	6.950E-12	9.803E+8	   23.0707	   23.4127	   17.8741	   -2.3360	
 -265.0000	6.941E-12	9.672E+8	   23.0707	   23.4111	   17.8621	   -2.3464	
 -270.0000	6.923E-12	9.850E+8	   23.0707	   23.4122	   17.8624	   -2.3452	
 -275.0000	6.897E-12	1.008E+9	   23.0707	   23.4136	   17.8472	   -2.3555	
 -280.0000	6.876E-12	1.159E+9	   23.0707	   23.4137	   17.8441	   -2.3579	
 -285.0000	6.873E-12	1.321E+9	   23.0707	   23.4137	   17.8397	   -2.3612	
 -290.0000	6.864E-12	1.383E+9	   23.0733	   23.4157	   17.8393	   -2.3598	
 -295.0000	6.862E-12	1.403E+9	   23.0707	   23.4163	   17.8416	   -2.3576	
 -300.0000	6.860E-12	1.463E+9	   23.0733	   23.4159	   17.8507	   -2.3511	
 -305.0000	6.854E-12	1.515E+9	   23.0707	   23.4128	   17.8627	   -2.3445	
 -310.0000	6.851E-12	1.536E+9	   23.0707	   23.4128	   17.8738	   -2.3361	
 -315.0000	6.845E-12	1.561E+9	   23.0707	   23.4151	   17.8738	   -2.3343	
 -320.0000	6.845E-12	1.577E+9	   23.0707	   23.4160	   17.8567	   -2.3465	
 -325.0000	6.839E-12	1.698E+9	   23.0707	   23.4160	   17.8416	   -2.3579	
 -330.0000	6.839E-12	1.705E+9	   23.0707	   23.4160	   17.8416	   -2.3579	
 -335.0000	6.834E-12	1.771E+9	   23.0707	   23.4177	   17.8374	   -2.3596	
 -340.0000	6.834E-12	1.670E+9	   23.0707	   23.4177	   17.8349	   -2.3615	
 -345.0000	6.833E-12	1.751E+9	   23.0707	   23.4178	   17.8330	   -2.3629	
 -350.0000	6.829E-12	1.707E+9	   23.0707	   23.4139	   17.8387	   -2.3618	
 -355.0000	6.827E-12	1.901E+9	   23.0707	   23.4183	   17.8447	   -2.3536	
 -360.0000	6.828E-12	1.810E+9	   23.0707	   23.4205	   17.8507	   -2.3474	
 -365.0000	6.824E-12	1.871E+9	   23.0707	   23.4225	   17.8552	   -2.3424	
 -370.0000	6.823E-12	1.882E+9	   23.0707	   23.4225	   17.8659	   -2.3343	
 -375.0000	6.824E-12	1.956E+9	   23.0707	   23.4225	   17.8631	   -2.3364	
 -380.0000	6.820E-12	1.952E+9	   23.0707	   23.4182	   17.8710	   -2.3339	
 -385.0000	6.824E-12	1.985E+9	   23.0707	   23.4179	   17.8770	   -2.3296	
 -390.0000	6.820E-12	2.019E+9	   23.0707	   23.4180	   17.8542	   -2.3468	
 -395.0000	6.820E-12	1.960E+9	   23.0707	   23.4171	   17.8561	   -2.3460	
 -400.0000	6.819E-12	1.913E+9	   23.0707	   23.4146	   17.8571	   -2.3473	
 -410.0000	6.819E-12	2.000E+9	   23.0707	   23.4175	   17.8536	   -2.3476	
 -420.0000	6.812E-12	2.031E+9	   23.0707	   23.4181	   17.8703	   -2.3345	
 -430.0000	6.810E-12	2.080E+9	   23.0707	   23.4191	   17.8691	   -2.3346	
 -440.0000	6.810E-12	2.114E+9	   23.0707	   23.4202	   17.8618	   -2.3392	
 -450.0000	6.811E-12	2.188E+9	   23.0707	   23.4157	   17.8314	   -2.3658	
 -460.0000	6.809E-12	2.071E+9	   23.0707	   23.4189	   17.8403	   -2.3565	
 -470.0000	6.809E-12	2.245E+9	   23.0707	   23.4189	   17.8403	   -2.3565	
 -480.0000	6.809E-12	2.294E+9	   23.0707	   23.4200	   17.8472	   -2.3504	
 -490.0000	6.807E-12	2.165E+9	   23.0707	   23.4238	   17.8308	   -2.3597	
 -500.0000	6.806E-12	2.285E+9	   23.0707	   23.4219	   17.8156	   -2.3728	
 -510.0000	6.801E-12	2.104E+9	   23.0707	   23.4201	   17.8106	   -2.3780	
 -520.0000	6.804E-12	2.228E+9	   23.0707	   23.4128	   17.8033	   -2.3894	
 -530.0000	6.802E-12	2.156E+9	   23.0707	   23.4128	   17.7951	   -2.3957	
 -540.0000	6.802E-12	2.241E+9	   23.0707	   23.4168	   17.8068	   -2.3836	
 -550.0000	6.804E-12	2.093E+9	   23.0707	   23.4210	   17.7992	   -2.3859	
 -560.0000	6.805E-12	2.287E+9	   23.0707	   23.4204	   17.8109	   -2.3775	
 -570.0000	6.799E-12	2.249E+9	   23.0707	   23.4221	   17.8213	   -2.3683	
 -580.0000	6.804E-12	2.305E+9	   23.0707	   23.4216	   17.8210	   -2.3689	
 -590.0000	6.804E-12	2.216E+9	   23.0707	   23.4168	   17.8163	   -2.3764	
 -600.0000	6.801E-12	2.110E+9	   23.0707	   23.4195	   17.8065	   -2.3816	
