GCD Test
Bias: 5000.000000
IV_38694_040_2-S_HM_XX_DIODE_Irradiated_Annealed_60C_80min
Date/Time: 3/20/2022 1:42:57 PM
Sensor Name: 
Type: P
Annealing Status: Irradiated and Annealed at 60C for 80 minutes
Environment: -20C
Tester: Andrew Kent

Time Delay per Ramp Step (s): 1.000

CV Time Delay per Measurement (s) :0.500

AC Voltage (V): 0.500

Current Number of measurements per voltage: 4.000

IV Time Delay per Measurement (s) :0.000


BiasVoltage	Total Current_Avg	Total Current_0	Total Current_1	Total Current_2	Total Current_3	Bias Current_Avg	Bias Current_0	Bias Current_1	Bias Current_2	Bias Current_3	Temperature	Air_Temp	Humidity	Dewpoint	
  -10.0000	-1.4837E-6	-1.4910E-6	-1.4850E-6	-1.4820E-6	-1.4770E-6	-1.480944E-6	-1.480800E-6	-1.480893E-6	-1.479206E-6	-1.482876E-6	  -19.4462	    9.7139	    3.4744	  -31.9445	
  -20.0000	-1.9850E-6	-1.9840E-6	-1.9860E-6	-1.9860E-6	-1.9840E-6	-1.960199E-6	-1.978525E-6	-1.967027E-6	-1.954997E-6	-1.940248E-6	  -19.4309	    9.7010	    3.3719	  -32.2620	
  -30.0000	-2.2223E-6	-2.2370E-6	-2.2290E-6	-2.2120E-6	-2.2110E-6	-2.194735E-6	-2.203092E-6	-2.197557E-6	-2.194890E-6	-2.183403E-6	  -19.5200	    9.7310	    3.2701	  -32.5564	
  -40.0000	-2.4495E-6	-2.4570E-6	-2.4520E-6	-2.4490E-6	-2.4400E-6	-2.433519E-6	-2.432987E-6	-2.433689E-6	-2.433210E-6	-2.434191E-6	  -19.6853	    9.7523	    3.1540	  -32.9119	
  -50.0000	-2.6590E-6	-2.6760E-6	-2.6580E-6	-2.6550E-6	-2.6470E-6	-2.638443E-6	-2.644831E-6	-2.637317E-6	-2.637029E-6	-2.634595E-6	  -19.7591	    9.7625	    3.1407	  -32.9480	
  -60.0000	-2.8203E-6	-2.8320E-6	-2.8270E-6	-2.8180E-6	-2.8040E-6	-2.801844E-6	-2.806357E-6	-2.806017E-6	-2.801002E-6	-2.794000E-6	  -19.8888	    9.8069	    3.1388	  -32.9237	
  -70.0000	-2.9817E-6	-2.9980E-6	-2.9880E-6	-2.9700E-6	-2.9710E-6	-2.978718E-6	-2.968362E-6	-2.983112E-6	-2.984621E-6	-2.978775E-6	  -19.9346	    9.7870	    3.1357	  -32.9478	
  -80.0000	-3.1275E-6	-3.1380E-6	-3.1320E-6	-3.1240E-6	-3.1160E-6	-3.106466E-6	-3.115738E-6	-3.102995E-6	-3.107103E-6	-3.100030E-6	  -19.9982	    9.7871	    3.1385	  -32.9384	
  -90.0000	-3.2392E-6	-3.2430E-6	-3.2460E-6	-3.2380E-6	-3.2300E-6	-3.239638E-6	-3.237169E-6	-3.244684E-6	-3.238991E-6	-3.237709E-6	  -20.0694	    9.8158	    3.1651	  -32.8325	
 -100.0000	-3.3597E-6	-3.3690E-6	-3.3680E-6	-3.3500E-6	-3.3520E-6	-3.349198E-6	-3.351834E-6	-3.355399E-6	-3.348025E-6	-3.341534E-6	  -20.1025	    9.8425	    3.1885	  -32.7387	
 -110.0000	-3.4578E-6	-3.4620E-6	-3.4580E-6	-3.4560E-6	-3.4550E-6	-3.463967E-6	-3.456956E-6	-3.463827E-6	-3.473063E-6	-3.462024E-6	  -20.1814	    9.7857	    3.2663	  -32.5306	
 -120.0000	-3.5595E-6	-3.5710E-6	-3.5700E-6	-3.5500E-6	-3.5470E-6	-3.538764E-6	-3.542759E-6	-3.541902E-6	-3.534631E-6	-3.535762E-6	  -20.2170	    9.7857	    3.3055	  -32.4081	
 -130.0000	-3.6540E-6	-3.6500E-6	-3.6580E-6	-3.6570E-6	-3.6510E-6	-3.642281E-6	-3.645796E-6	-3.645847E-6	-3.638295E-6	-3.639187E-6	  -20.2653	    9.7683	    3.3564	  -32.2629	
 -140.0000	-3.7237E-6	-3.7330E-6	-3.7300E-6	-3.7140E-6	-3.7180E-6	-3.712607E-6	-3.721448E-6	-3.708922E-6	-3.706304E-6	-3.713755E-6	  -20.3365	    9.7888	    3.3937	  -32.1349	
 -150.0000	-3.7965E-6	-3.8110E-6	-3.8000E-6	-3.7830E-6	-3.7920E-6	-3.782848E-6	-3.792708E-6	-3.781925E-6	-3.780664E-6	-3.776097E-6	  -20.3518	    9.8530	    3.4570	  -31.9000	
 -160.0000	-3.8687E-6	-3.8690E-6	-3.8640E-6	-3.8730E-6	-3.8690E-6	-3.856599E-6	-3.867084E-6	-3.861534E-6	-3.850173E-6	-3.847607E-6	  -20.3848	    9.8294	    3.4896	  -31.8195	
 -170.0000	-3.9505E-6	-3.9530E-6	-3.9550E-6	-3.9550E-6	-3.9390E-6	-3.910012E-6	-3.924230E-6	-3.913915E-6	-3.908818E-6	-3.893087E-6	  -20.4128	    9.8636	    3.5215	  -31.7015	
 -180.0000	-3.9830E-6	-3.9790E-6	-3.9770E-6	-3.9860E-6	-3.9900E-6	-3.991268E-6	-3.994301E-6	-3.988437E-6	-3.992459E-6	-3.989875E-6	  -20.4332	    9.8548	    3.5705	  -31.5646	
 -190.0000	-4.0615E-6	-4.0580E-6	-4.0640E-6	-4.0650E-6	-4.0590E-6	-4.038489E-6	-4.046936E-6	-4.034902E-6	-4.035340E-6	-4.036778E-6	  -20.4382	    9.8372	    3.6199	  -31.4345	
 -200.0000	-4.1138E-6	-4.1180E-6	-4.1110E-6	-4.1170E-6	-4.1090E-6	-4.086631E-6	-4.090822E-6	-4.084454E-6	-4.083854E-6	-4.087393E-6	  -20.4535	    9.8172	    3.6486	  -31.3663	
 -210.0000	-4.1445E-6	-4.1560E-6	-4.1490E-6	-4.1370E-6	-4.1360E-6	-4.133453E-6	-4.139214E-6	-4.141519E-6	-4.133287E-6	-4.119793E-6	  -20.4510	    9.8356	    3.6695	  -31.2942	
 -220.0000	-4.1870E-6	-4.1920E-6	-4.1840E-6	-4.1770E-6	-4.1950E-6	-4.193903E-6	-4.191837E-6	-4.194889E-6	-4.193435E-6	-4.195451E-6	  -20.4586	    9.8258	    3.6790	  -31.2743	
 -230.0000	-4.2620E-6	-4.2680E-6	-4.2660E-6	-4.2610E-6	-4.2530E-6	-4.252478E-6	-4.264668E-6	-4.260814E-6	-4.244826E-6	-4.239604E-6	  -20.4382	    9.8484	    3.7249	  -31.1297	
 -240.0000	-4.2897E-6	-4.2890E-6	-4.2860E-6	-4.2970E-6	-4.2870E-6	-4.277382E-6	-4.286644E-6	-4.280220E-6	-4.275783E-6	-4.266882E-6	  -20.4332	    9.8330	    3.7707	  -31.0131	
 -250.0000	-4.3265E-6	-4.3330E-6	-4.3220E-6	-4.3260E-6	-4.3250E-6	-4.313062E-6	-4.312312E-6	-4.308443E-6	-4.314143E-6	-4.317351E-6	  -20.4281	    9.8215	    3.8314	  -30.8547	
 -260.0000	-4.3662E-6	-4.3690E-6	-4.3810E-6	-4.3700E-6	-4.3450E-6	-4.319814E-6	-4.327430E-6	-4.321515E-6	-4.312584E-6	-4.317728E-6	  -20.4001	    9.7870	    3.9051	  -30.6799	
 -270.0000	-4.3725E-6	-4.3700E-6	-4.3800E-6	-4.3790E-6	-4.3610E-6	-4.375387E-6	-4.368939E-6	-4.383921E-6	-4.377122E-6	-4.371565E-6	  -20.3848	    9.7905	    3.9440	  -30.5739	
 -280.0000	-4.4172E-6	-4.4310E-6	-4.4160E-6	-4.4050E-6	-4.4170E-6	-4.418864E-6	-4.421418E-6	-4.417326E-6	-4.422021E-6	-4.414689E-6	  -20.3390	    9.8632	    4.0478	  -30.2509	
 -290.0000	-4.4688E-6	-4.4750E-6	-4.4740E-6	-4.4660E-6	-4.4600E-6	-4.450749E-6	-4.450139E-6	-4.449785E-6	-4.454096E-6	-4.448977E-6	  -20.3111	    9.8632	    4.0765	  -30.1765	
 -300.0000	-4.4925E-6	-4.4880E-6	-4.4950E-6	-4.4880E-6	-4.4990E-6	-4.510776E-6	-4.517424E-6	-4.512576E-6	-4.509401E-6	-4.503705E-6	  -20.2856	    9.8070	    4.1218	  -30.1002	
 -310.0000	-4.5302E-6	-4.5330E-6	-4.5360E-6	-4.5410E-6	-4.5110E-6	-4.506632E-6	-4.511136E-6	-4.500608E-6	-4.501972E-6	-4.512810E-6	  -20.2399	    9.7687	    4.1562	  -30.0397	
 -320.0000	-4.5483E-6	-4.5310E-6	-4.5490E-6	-4.5590E-6	-4.5540E-6	-4.554527E-6	-4.541298E-6	-4.549746E-6	-4.564492E-6	-4.562571E-6	  -20.2042	    9.7962	    4.1967	  -29.9183	
 -330.0000	-4.5660E-6	-4.5700E-6	-4.5640E-6	-4.5690E-6	-4.5610E-6	-4.547348E-6	-4.550826E-6	-4.548681E-6	-4.545484E-6	-4.544401E-6	  -20.1737	    9.7962	    4.1977	  -29.9160	
 -340.0000	-4.5867E-6	-4.5970E-6	-4.5820E-6	-4.5780E-6	-4.5900E-6	-4.584908E-6	-4.592593E-6	-4.576900E-6	-4.578848E-6	-4.591292E-6	  -20.1254	    9.7928	    4.1866	  -29.9462	
 -350.0000	-4.6535E-6	-4.6560E-6	-4.6560E-6	-4.6460E-6	-4.6560E-6	-4.655060E-6	-4.662022E-6	-4.666982E-6	-4.656378E-6	-4.634860E-6	  -20.0822	    9.8340	    4.1499	  -30.0097	
 -360.0000	-4.6658E-6	-4.6680E-6	-4.6550E-6	-4.6630E-6	-4.6770E-6	-4.686418E-6	-4.681929E-6	-4.677291E-6	-4.695001E-6	-4.691449E-6	  -20.0567	    9.8242	    4.1246	  -30.0809	
 -370.0000	-4.6865E-6	-4.6900E-6	-4.6800E-6	-4.6810E-6	-4.6950E-6	-4.692067E-6	-4.702445E-6	-4.684005E-6	-4.693814E-6	-4.688005E-6	  -20.0287	    9.8242	    4.1249	  -30.0801	
 -380.0000	-4.7075E-6	-4.7180E-6	-4.7160E-6	-4.6970E-6	-4.6990E-6	-4.697993E-6	-4.699523E-6	-4.696856E-6	-4.700734E-6	-4.694860E-6	  -19.9779	    9.8055	    4.1120	  -30.1263	
 -390.0000	-4.7270E-6	-4.7410E-6	-4.7210E-6	-4.7160E-6	-4.7300E-6	-4.732202E-6	-4.725291E-6	-4.734775E-6	-4.736679E-6	-4.732063E-6	  -19.9652	    9.8046	    4.1094	  -30.1334	
 -400.0000	-4.7595E-6	-4.7610E-6	-4.7610E-6	-4.7570E-6	-4.7590E-6	-4.765323E-6	-4.751646E-6	-4.768576E-6	-4.768689E-6	-4.772382E-6	  -19.9372	    9.7399	    4.0892	  -30.2308	
 -410.0000	-4.7857E-6	-4.7910E-6	-4.7830E-6	-4.7790E-6	-4.7900E-6	-4.781123E-6	-4.784215E-6	-4.784280E-6	-4.771657E-6	-4.784341E-6	  -19.9168	    9.7399	    4.0829	  -30.2471	
 -420.0000	-4.7935E-6	-4.8030E-6	-4.7990E-6	-4.7910E-6	-4.7810E-6	-4.790309E-6	-4.788972E-6	-4.788164E-6	-4.787593E-6	-4.796507E-6	  -19.8965	    9.7196	    4.0772	  -30.2759	
 -430.0000	-4.8088E-6	-4.8020E-6	-4.8090E-6	-4.8170E-6	-4.8070E-6	-4.812067E-6	-4.818182E-6	-4.814999E-6	-4.808412E-6	-4.806676E-6	  -19.9092	    9.7349	    4.0863	  -30.2416	
 -440.0000	-4.8610E-6	-4.8510E-6	-4.8560E-6	-4.8690E-6	-4.8680E-6	-4.852472E-6	-4.864041E-6	-4.854952E-6	-4.850472E-6	-4.840423E-6	  -19.8787	    9.8032	    4.0984	  -30.1627	
 -450.0000	-4.8497E-6	-4.8580E-6	-4.8540E-6	-4.8460E-6	-4.8410E-6	-4.849933E-6	-4.848187E-6	-4.848431E-6	-4.849373E-6	-4.853739E-6	  -19.8685	    9.8032	    4.1069	  -30.1409	
 -460.0000	-4.8877E-6	-4.8710E-6	-4.8780E-6	-4.8920E-6	-4.9100E-6	-4.907364E-6	-4.919794E-6	-4.912909E-6	-4.902315E-6	-4.894439E-6	  -19.8736	    9.8334	    4.1214	  -30.0824	
 -470.0000	-4.9200E-6	-4.9160E-6	-4.9300E-6	-4.9240E-6	-4.9100E-6	-4.924058E-6	-4.917405E-6	-4.920343E-6	-4.927290E-6	-4.931194E-6	  -19.8863	    9.8176	    4.1338	  -30.0622	
 -480.0000	-4.9350E-6	-4.9470E-6	-4.9450E-6	-4.9350E-6	-4.9130E-6	-4.911691E-6	-4.909477E-6	-4.920706E-6	-4.908150E-6	-4.908431E-6	  -19.8863	    9.8122	    4.1594	  -30.0010	
 -490.0000	-4.9530E-6	-4.9670E-6	-4.9520E-6	-4.9460E-6	-4.9470E-6	-4.949267E-6	-4.953385E-6	-4.950077E-6	-4.943373E-6	-4.950232E-6	  -19.8863	    9.8170	    4.1898	  -29.9211	
 -500.0000	-5.0012E-6	-5.0070E-6	-5.0100E-6	-4.9990E-6	-4.9890E-6	-4.983158E-6	-4.987372E-6	-4.979502E-6	-4.985736E-6	-4.980023E-6	  -19.8863	    9.8058	    4.2075	  -29.8846	
 -510.0000	-4.9920E-6	-5.0000E-6	-4.9850E-6	-4.9880E-6	-4.9950E-6	-4.974680E-6	-4.986052E-6	-4.984201E-6	-4.971984E-6	-4.956484E-6	  -19.9041	    9.8188	    4.2236	  -29.8351	
 -520.0000	-4.9965E-6	-5.0130E-6	-5.0060E-6	-4.9840E-6	-4.9830E-6	-4.969175E-6	-4.972937E-6	-4.972902E-6	-4.969065E-6	-4.961797E-6	  -19.9041	    9.8272	    4.2454	  -29.7749	
 -530.0000	-5.0190E-6	-5.0050E-6	-5.0310E-6	-5.0280E-6	-5.0120E-6	-5.009609E-6	-5.006169E-6	-5.015102E-6	-5.004737E-6	-5.012427E-6	  -19.9143	    9.8349	    4.2653	  -29.7201	
 -540.0000	-5.0370E-6	-5.0410E-6	-5.0470E-6	-5.0330E-6	-5.0270E-6	-5.042509E-6	-5.037270E-6	-5.048365E-6	-5.051248E-6	-5.033155E-6	  -19.9346	    9.8690	    4.2657	  -29.6952	
 -550.0000	-5.0680E-6	-5.0540E-6	-5.0810E-6	-5.0740E-6	-5.0630E-6	-5.043535E-6	-5.056288E-6	-5.042834E-6	-5.041041E-6	-5.033977E-6	  -19.9524	    9.8725	    4.2745	  -29.6709	
 -560.0000	-5.0547E-6	-5.0390E-6	-5.0460E-6	-5.0660E-6	-5.0680E-6	-5.058539E-6	-5.059333E-6	-5.062678E-6	-5.055007E-6	-5.057138E-6	  -19.9753	    9.8160	    4.3485	  -29.5297	
 -570.0000	-5.0698E-6	-5.0540E-6	-5.0690E-6	-5.0760E-6	-5.0800E-6	-5.073801E-6	-5.081493E-6	-5.085185E-6	-5.074294E-6	-5.054231E-6	  -20.0109	    9.8204	    4.3669	  -29.4821	
 -580.0000	-5.0803E-6	-5.0890E-6	-5.0880E-6	-5.0770E-6	-5.0670E-6	-5.081285E-6	-5.077969E-6	-5.083683E-6	-5.075493E-6	-5.087996E-6	  -20.0186	    9.8176	    4.3770	  -29.4596	
 -590.0000	-5.1123E-6	-5.1250E-6	-5.1150E-6	-5.1100E-6	-5.0990E-6	-5.106209E-6	-5.106693E-6	-5.111000E-6	-5.105284E-6	-5.101861E-6	  -20.0237	    9.8299	    4.3887	  -29.4226	
 -600.0000	-5.1102E-6	-5.1330E-6	-5.1070E-6	-5.1080E-6	-5.0930E-6	-5.099190E-6	-5.094246E-6	-5.099176E-6	-5.096893E-6	-5.106446E-6	  -20.0186	    9.8366	    4.4225	  -29.3366	
 -610.0000	-5.1250E-6	-5.1250E-6	-5.1320E-6	-5.1150E-6	-5.1280E-6	-5.135398E-6	-5.124926E-6	-5.129546E-6	-5.146836E-6	-5.140283E-6	  -20.0389	    9.8905	    4.4877	  -29.1435	
 -620.0000	-5.1492E-6	-5.1740E-6	-5.1630E-6	-5.1320E-6	-5.1280E-6	-5.142590E-6	-5.142517E-6	-5.143252E-6	-5.145845E-6	-5.138744E-6	  -20.0313	    9.8905	    4.5196	  -29.0682	
 -630.0000	-5.1352E-6	-5.1260E-6	-5.1270E-6	-5.1400E-6	-5.1480E-6	-5.165158E-6	-5.159768E-6	-5.160426E-6	-5.177875E-6	-5.162563E-6	  -20.0618	    9.9033	    4.5898	  -28.8954	
 -640.0000	-5.1710E-6	-5.1760E-6	-5.1680E-6	-5.1630E-6	-5.1770E-6	-5.168303E-6	-5.173229E-6	-5.166815E-6	-5.173034E-6	-5.160136E-6	  -20.0567	    9.8925	    4.6335	  -28.8025	
 -650.0000	-5.1740E-6	-5.1670E-6	-5.1800E-6	-5.1750E-6	-5.1740E-6	-5.166809E-6	-5.155497E-6	-5.164906E-6	-5.169999E-6	-5.176834E-6	  -20.0771	    9.8738	    4.6917	  -28.6830	
 -660.0000	-5.1970E-6	-5.1980E-6	-5.1960E-6	-5.1980E-6	-5.1960E-6	-5.196720E-6	-5.200470E-6	-5.190189E-6	-5.196852E-6	-5.199371E-6	  -20.0720	    9.8738	    4.7138	  -28.6329	
 -670.0000	-5.2050E-6	-5.1870E-6	-5.2010E-6	-5.2070E-6	-5.2250E-6	-5.221931E-6	-5.229881E-6	-5.225437E-6	-5.218100E-6	-5.214304E-6	  -20.0771	    9.8883	    4.7347	  -28.5754	
 -680.0000	-5.1958E-6	-5.2140E-6	-5.1980E-6	-5.1850E-6	-5.1860E-6	-5.206178E-6	-5.207393E-6	-5.215998E-6	-5.205606E-6	-5.195715E-6	  -20.0898	    9.9009	    4.7615	  -28.5060	
 -690.0000	-5.2247E-6	-5.2300E-6	-5.2330E-6	-5.2230E-6	-5.2130E-6	-5.220505E-6	-5.204186E-6	-5.238419E-6	-5.222822E-6	-5.216591E-6	  -20.0923	    9.8653	    4.8346	  -28.3690	
 -700.0000	-5.2137E-6	-5.2160E-6	-5.2130E-6	-5.2090E-6	-5.2170E-6	-5.214023E-6	-5.221467E-6	-5.218483E-6	-5.211530E-6	-5.204614E-6	  -20.0949	    9.8653	    4.8431	  -28.3501	
 -710.0000	-5.2365E-6	-5.2340E-6	-5.2240E-6	-5.2550E-6	-5.2330E-6	-5.241466E-6	-5.230712E-6	-5.250113E-6	-5.241309E-6	-5.243731E-6	  -20.1025	    9.9119	    4.8669	  -28.2645	
 -720.0000	-5.2643E-6	-5.2560E-6	-5.2590E-6	-5.2650E-6	-5.2770E-6	-5.272060E-6	-5.279711E-6	-5.271469E-6	-5.266592E-6	-5.270467E-6	  -20.0796	    9.9047	    4.8814	  -28.2378	
 -730.0000	-5.2290E-6	-5.2510E-6	-5.2300E-6	-5.2240E-6	-5.2110E-6	-5.249366E-6	-5.238996E-6	-5.258812E-6	-5.253769E-6	-5.245887E-6	  -20.0771	    9.9236	    4.8368	  -28.3223	
 -740.0000	-5.2828E-6	-5.2980E-6	-5.2830E-6	-5.2730E-6	-5.2770E-6	-5.290817E-6	-5.296408E-6	-5.297008E-6	-5.288382E-6	-5.281469E-6	  -20.0745	    9.9236	    4.8330	  -28.3307	
 -750.0000	-5.3020E-6	-5.3110E-6	-5.2870E-6	-5.2960E-6	-5.3140E-6	-5.315160E-6	-5.318438E-6	-5.320068E-6	-5.315715E-6	-5.306417E-6	  -20.0516	    9.9031	    4.7938	  -28.4324	
 -760.0000	-5.2993E-6	-5.2950E-6	-5.3180E-6	-5.3040E-6	-5.2800E-6	-5.288342E-6	-5.287408E-6	-5.287566E-6	-5.284555E-6	-5.293840E-6	  -20.0516	    9.8971	    4.7682	  -28.4939	
 -770.0000	-5.2940E-6	-5.2970E-6	-5.3000E-6	-5.2890E-6	-5.2900E-6	-5.298247E-6	-5.295229E-6	-5.281177E-6	-5.298304E-6	-5.318280E-6	  -20.0313	    9.9184	    4.7220	  -28.5824	
 -780.0000	-5.3400E-6	-5.3570E-6	-5.3520E-6	-5.3360E-6	-5.3150E-6	-5.301496E-6	-5.298016E-6	-5.292880E-6	-5.307159E-6	-5.307930E-6	  -20.0313	    9.9184	    4.7068	  -28.6167	
 -790.0000	-5.3175E-6	-5.3160E-6	-5.3140E-6	-5.3210E-6	-5.3190E-6	-5.309539E-6	-5.306927E-6	-5.314422E-6	-5.310675E-6	-5.306131E-6	  -20.0135	    9.8905	    4.6913	  -28.6718	
 -800.0000	-5.3255E-6	-5.3220E-6	-5.3210E-6	-5.3270E-6	-5.3320E-6	-5.334831E-6	-5.332839E-6	-5.334565E-6	-5.331814E-6	-5.340107E-6	  -20.0211	    9.9042	    4.6967	  -28.6498	
 -810.0000	-5.3355E-6	-5.3490E-6	-5.3350E-6	-5.3320E-6	-5.3260E-6	-5.344788E-6	-5.337852E-6	-5.343413E-6	-5.349334E-6	-5.348552E-6	  -20.0008	    9.9226	    4.7574	  -28.4997	
 -820.0000	-5.3582E-6	-5.3630E-6	-5.3580E-6	-5.3670E-6	-5.3450E-6	-5.357863E-6	-5.353801E-6	-5.356007E-6	-5.362670E-6	-5.358974E-6	  -20.0059	    9.9226	    4.7593	  -28.4954	
 -830.0000	-5.3693E-6	-5.3810E-6	-5.3840E-6	-5.3590E-6	-5.3530E-6	-5.338036E-6	-5.354880E-6	-5.342584E-6	-5.333708E-6	-5.320972E-6	  -20.0084	    9.9483	    4.8257	  -28.3291	
 -840.0000	-5.3728E-6	-5.3780E-6	-5.3810E-6	-5.3730E-6	-5.3590E-6	-5.361244E-6	-5.361277E-6	-5.360002E-6	-5.356036E-6	-5.367660E-6	  -20.0084	    9.9717	    4.8767	  -28.2001	
 -850.0000	-5.3928E-6	-5.3920E-6	-5.4040E-6	-5.3870E-6	-5.3880E-6	-5.371067E-6	-5.380166E-6	-5.378670E-6	-5.365542E-6	-5.359891E-6	  -20.0033	   10.0482	    4.9456	  -27.9949	
 -860.0000	-5.3943E-6	-5.3750E-6	-5.3940E-6	-5.3980E-6	-5.4100E-6	-5.416140E-6	-5.421789E-6	-5.416347E-6	-5.418216E-6	-5.408208E-6	  -20.0008	   10.0482	    4.9750	  -27.9313	
 -870.0000	-5.4233E-6	-5.4280E-6	-5.4320E-6	-5.4270E-6	-5.4060E-6	-5.397064E-6	-5.396946E-6	-5.397529E-6	-5.401538E-6	-5.392243E-6	  -19.9982	   10.0445	    4.9918	  -27.8979	
 -880.0000	-5.4180E-6	-5.4290E-6	-5.4170E-6	-5.4080E-6	-5.4180E-6	-5.419413E-6	-5.414401E-6	-5.413397E-6	-5.419918E-6	-5.429937E-6	  -20.0008	   10.0086	    5.0022	  -27.9013	
 -890.0000	-5.4303E-6	-5.4310E-6	-5.4310E-6	-5.4280E-6	-5.4310E-6	-5.421906E-6	-5.419667E-6	-5.426898E-6	-5.415562E-6	-5.425499E-6	  -19.9906	    9.9117	    5.0076	  -27.9595	
 -900.0000	-5.4392E-6	-5.4480E-6	-5.4360E-6	-5.4360E-6	-5.4370E-6	-5.446170E-6	-5.444605E-6	-5.448027E-6	-5.441140E-6	-5.450907E-6	  -19.9855	    9.9117	    5.0016	  -27.9723	
 -910.0000	-5.4708E-6	-5.4770E-6	-5.4870E-6	-5.4710E-6	-5.4480E-6	-5.429412E-6	-5.425149E-6	-5.419470E-6	-5.428451E-6	-5.444579E-6	  -19.9855	   10.0125	    4.9956	  -27.9127	
 -920.0000	-5.4955E-6	-5.5160E-6	-5.4850E-6	-5.4910E-6	-5.4900E-6	-5.476003E-6	-5.491190E-6	-5.475918E-6	-5.464906E-6	-5.471998E-6	  -19.9855	   10.0737	    4.9810	  -27.9001	
 -930.0000	-5.5008E-6	-5.4910E-6	-5.5110E-6	-5.4950E-6	-5.5060E-6	-5.513471E-6	-5.510627E-6	-5.511982E-6	-5.521064E-6	-5.510210E-6	  -19.9830	   10.1024	    4.9927	  -27.8543	
 -940.0000	-5.5517E-6	-5.5710E-6	-5.5600E-6	-5.5450E-6	-5.5310E-6	-5.527912E-6	-5.519637E-6	-5.523681E-6	-5.537357E-6	-5.530973E-6	  -19.9779	   10.1024	    4.9934	  -27.8530	
 -950.0000	-5.5250E-6	-5.5410E-6	-5.5360E-6	-5.5230E-6	-5.5000E-6	-5.518236E-6	-5.510351E-6	-5.517092E-6	-5.525477E-6	-5.520024E-6	  -19.9779	   10.1539	    4.9934	  -27.8160	
 -960.0000	-5.5315E-6	-5.5400E-6	-5.5350E-6	-5.5330E-6	-5.5180E-6	-5.522586E-6	-5.514828E-6	-5.518095E-6	-5.523068E-6	-5.534353E-6	  -19.9804	   10.2095	    5.0076	  -27.7454	
 -970.0000	-5.5357E-6	-5.5250E-6	-5.5380E-6	-5.5410E-6	-5.5390E-6	-5.525615E-6	-5.521561E-6	-5.527311E-6	-5.530023E-6	-5.523566E-6	  -19.9906	   10.1673	    5.0810	  -27.6194	
 -980.0000	-5.5388E-6	-5.5360E-6	-5.5370E-6	-5.5420E-6	-5.5400E-6	-5.539979E-6	-5.537819E-6	-5.538323E-6	-5.543173E-6	-5.540601E-6	  -19.9906	   10.1673	    5.1135	  -27.5506	
 -990.0000	-5.5658E-6	-5.5670E-6	-5.5540E-6	-5.5680E-6	-5.5740E-6	-5.559396E-6	-5.562775E-6	-5.562545E-6	-5.557195E-6	-5.555067E-6	  -19.9906	   10.1595	    5.1626	  -27.4535	
-1000.0000	-5.5778E-6	-5.5610E-6	-5.5670E-6	-5.5830E-6	-5.6000E-6	-5.588844E-6	-5.597206E-6	-5.591738E-6	-5.584009E-6	-5.582423E-6	  -19.9855	   10.2640	    5.2233	  -27.2521	
