GCD Test
Bias: 5000.000000
CV_D0_CO138_LargeDiode_GRConnected_Irradiated_320min
Date/Time: 8/24/2021 11:22:53 AM
Sensor Name: CO138
Type: N
Annealing Status: Irradiated, Annealed at 60C for 320 minutes
Environment: -20C
Tester: Andrew Kent

Time Delay per Ramp Step (s): 0.500

CV Time Delay per Measurement (s) :0.500

AC Voltage (V): 0.500

Current Number of measurements per voltage: 4.000

IV Time Delay per Measurement (s) :0.000


BiasVoltage	LCR_Cp_freq1000.0	LCR_Cp_freq10000.0	LCR_Rp_freq1000.0	LCR_Rp_freq10000.0	Temperature	Air_Temp	Humidity	Dewpoint	
    1.0000	3.939E-12	3.868E-12	1.813E+9	2.973E+8	  -20.0109	   16.2169	    4.9437	  -23.5887	
    2.0000	3.979E-12	3.876E-12	2.493E+9	2.948E+8	  -20.0084	   16.1944	    4.9658	  -23.5548	
    3.0000	3.982E-12	3.876E-12	2.629E+9	2.960E+8	  -20.0211	   16.1789	    4.9639	  -23.5700	
    4.0000	3.981E-12	3.876E-12	2.557E+9	2.964E+8	  -20.0262	   16.1858	    4.9684	  -23.5552	
    5.0000	3.979E-12	3.876E-12	2.695E+9	2.970E+8	  -20.0262	   16.2069	    4.9722	  -23.5316	
    6.0000	3.980E-12	3.877E-12	2.622E+9	2.962E+8	  -20.0186	   16.1260	    5.0044	  -23.5170	
    7.0000	3.982E-12	3.876E-12	2.501E+9	2.961E+8	  -20.0084	   16.0920	    5.0253	  -23.4947	
    8.0000	3.978E-12	3.877E-12	2.652E+9	2.981E+8	  -19.9931	   16.0774	    5.0171	  -23.5234	
    9.0000	3.977E-12	3.876E-12	2.651E+9	2.964E+8	  -19.9931	   16.0479	    5.0278	  -23.5206	
   10.0000	3.980E-12	3.876E-12	2.672E+9	2.958E+8	  -19.9804	   16.0500	    5.0889	  -23.3841	
   20.0000	3.984E-12	3.872E-12	2.555E+9	2.986E+8	  -19.9804	   16.0651	    5.0898	  -23.3712	
   30.0000	3.981E-12	3.879E-12	2.567E+9	2.842E+8	  -20.0008	   16.0442	    5.1410	  -23.2740	
   40.0000	3.981E-12	3.872E-12	2.546E+9	2.989E+8	  -20.0008	   16.0398	    5.1904	  -23.1701	
   50.0000	3.980E-12	3.872E-12	2.467E+9	3.000E+8	  -20.0237	   16.0037	    5.2356	  -23.0986	
   60.0000	3.983E-12	3.872E-12	2.512E+9	2.991E+8	  -20.0160	   16.0007	    5.2290	  -23.1150	
   70.0000	3.982E-12	3.872E-12	2.446E+9	2.977E+8	  -20.0313	   16.0392	    5.2932	  -22.9504	
   80.0000	3.981E-12	3.873E-12	2.534E+9	2.989E+8	  -20.0389	   16.0178	    5.3153	  -22.9188	
   90.0000	3.981E-12	3.873E-12	2.473E+9	3.006E+8	  -20.0389	   16.0081	    5.3510	  -22.8504	
  100.0000	3.982E-12	3.873E-12	2.496E+9	2.980E+8	  -20.0313	   16.0269	    5.4001	  -22.7343	
  120.0000	3.983E-12	3.882E-12	2.811E+9	2.801E+8	  -20.0338	   15.9796	    5.3947	  -22.7795	
  140.0000	3.981E-12	3.883E-12	2.645E+9	2.868E+8	  -20.0237	   16.0130	    5.4073	  -22.7291	
  160.0000	3.986E-12	3.882E-12	2.718E+9	2.806E+8	  -20.0109	   16.0359	    5.3972	  -22.7337	
  180.0000	3.986E-12	3.882E-12	2.720E+9	2.854E+8	  -20.0109	   16.0060	    5.3956	  -22.7585	
  200.0000	3.982E-12	3.882E-12	2.641E+9	2.840E+8	  -19.9880	   16.0398	    5.3849	  -22.7567	
  220.0000	3.985E-12	3.881E-12	2.456E+9	2.791E+8	  -19.9804	   16.0119	    5.3583	  -22.8324	
  240.0000	3.982E-12	3.881E-12	2.600E+9	2.788E+8	  -19.9702	   15.9587	    5.3131	  -22.9659	
  260.0000	3.985E-12	3.883E-12	2.696E+9	2.846E+8	  -19.9779	   15.9502	    5.2577	  -23.0896	
  280.0000	3.985E-12	3.884E-12	2.494E+9	2.879E+8	  -19.9830	   15.9192	    5.2505	  -23.1273	
  300.0000	3.984E-12	3.884E-12	2.553E+9	2.871E+8	  -20.0059	   15.9387	    5.3077	  -22.9917	
  320.0000	2.415E-11	1.860E-11	1.304E+7	5.289E+6	  -20.0237	   15.9597	    5.3223	  -22.9458	
  340.0000	2.389E-11	1.856E-11	1.295E+7	5.541E+6	  -20.0237	   15.9857	    5.3311	  -22.9085	
  360.0000	2.425E-11	1.854E-11	1.309E+7	5.847E+6	  -20.0389	   15.9626	    5.3425	  -22.9010	
  380.0000	2.382E-11	1.852E-11	1.372E+7	6.083E+6	  -20.0364	   15.9643	    5.3305	  -22.9252	
  400.0000	2.314E-11	1.849E-11	1.321E+7	6.457E+6	  -20.0389	   15.9296	    5.3232	  -22.9654	
  420.0000	2.350E-11	1.847E-11	1.394E+7	6.800E+6	  -20.0186	   15.9091	    5.3710	  -22.8798	
  440.0000	2.313E-11	1.844E-11	1.453E+7	7.202E+6	  -20.0109	   15.9165	    5.3937	  -22.8268	
  460.0000	2.316E-11	1.842E-11	1.511E+7	7.598E+6	  -20.0059	   15.9001	    5.3963	  -22.8333	
  480.0000	2.270E-11	1.839E-11	1.560E+7	8.077E+6	  -20.0059	   15.8731	    5.3877	  -22.8706	
  500.0000	2.235E-11	1.837E-11	1.622E+7	8.605E+6	  -19.9982	   15.8618	    5.3836	  -22.8873	
  520.0000	2.217E-11	1.835E-11	1.712E+7	9.160E+6	  -19.9931	   15.8830	    5.3909	  -22.8569	
  540.0000	2.215E-11	1.834E-11	1.772E+7	9.794E+6	  -19.9855	   15.8325	    5.4045	  -22.8648	
  560.0000	2.193E-11	1.832E-11	1.810E+7	1.049E+7	  -19.9830	   15.8157	    5.4503	  -22.7819	
  580.0000	2.159E-11	1.830E-11	2.001E+7	1.133E+7	  -19.9830	   15.8013	    5.4541	  -22.7844	
  600.0000	2.122E-11	1.829E-11	2.044E+7	1.215E+7	  -19.9830	   15.7680	    5.4485	  -22.8202	
  620.0000	2.107E-11	1.828E-11	2.132E+7	1.311E+7	  -19.9779	   15.7845	    5.4371	  -22.8318	
  640.0000	2.090E-11	1.827E-11	2.282E+7	1.412E+7	  -19.9880	   15.7789	    5.4399	  -22.8299	
  660.0000	2.072E-11	1.826E-11	2.411E+7	1.520E+7	  -20.0008	   15.8098	    5.4225	  -22.8437	
  680.0000	2.050E-11	1.825E-11	2.578E+7	1.649E+7	  -20.0211	   15.8131	    5.4054	  -22.8768	
  700.0000	2.038E-11	1.824E-11	2.801E+7	1.779E+7	  -20.0237	   15.7794	    5.3975	  -22.9175	
  720.0000	1.999E-11	1.824E-11	2.891E+7	1.920E+7	  -20.0237	   15.8091	    5.3738	  -22.9456	
  740.0000	2.010E-11	1.823E-11	3.185E+7	2.075E+7	  -20.0313	   15.7724	    5.3716	  -22.9767	
  760.0000	1.986E-11	1.823E-11	3.279E+7	2.211E+7	  -20.0313	   15.7755	    5.3817	  -22.9533	
  780.0000	1.970E-11	1.822E-11	3.322E+7	2.349E+7	  -20.0237	   15.7755	    5.4054	  -22.9039	
  800.0000	1.949E-11	1.822E-11	3.721E+7	2.480E+7	  -20.0287	   15.7642	    5.4633	  -22.7922	
  820.0000	1.966E-11	1.823E-11	3.694E+7	2.586E+7	  -20.0338	   15.7729	    5.4991	  -22.7125	
  840.0000	1.950E-11	1.824E-11	3.856E+7	2.665E+7	  -20.0287	   15.7038	    5.5259	  -22.7074	
  860.0000	1.927E-11	1.826E-11	3.693E+7	2.692E+7	  -20.0211	   15.6947	    5.5576	  -22.6497	
  880.0000	1.947E-11	1.828E-11	3.837E+7	2.705E+7	  -20.0033	   15.6716	    5.6056	  -22.5693	
  900.0000	1.936E-11	1.831E-11	3.803E+7	2.674E+7	  -20.0008	   15.6772	    5.6913	  -22.3940	
  920.0000	1.955E-11	1.835E-11	3.538E+7	2.586E+7	  -19.9982	   15.6934	    5.7179	  -22.3296	
  940.0000	1.943E-11	1.838E-11	3.267E+7	2.470E+7	  -19.9830	   15.6636	    5.7710	  -22.2466	
  960.0000	1.953E-11	1.842E-11	2.996E+7	2.298E+7	  -19.9753	   15.6210	    5.7938	  -22.2329	
  980.0000	1.955E-11	1.847E-11	2.708E+7	2.085E+7	  -19.9677	   15.6009	    5.7897	  -22.2556	
 1000.0000	1.957E-11	1.853E-11	2.429E+7	1.854E+7	  -19.9652	   15.5930	    5.7913	  -22.2581	
 1020.0000	1.992E-11	1.862E-11	2.240E+7	1.606E+7	  -19.9753	   15.5452	    5.8049	  -22.2663	
 1040.0000	2.000E-11	1.873E-11	1.954E+7	1.390E+7	  -20.0186	   15.5108	    5.8166	  -22.2684	
 1060.0000	1.995E-11	1.889E-11	1.669E+7	1.218E+7	  -20.0338	   15.5242	    5.8204	  -22.2514	
 1080.0000	2.006E-11	1.905E-11	1.450E+7	1.094E+7	  -20.0415	   15.6018	    5.8378	  -22.1613	
 1100.0000	1.992E-11	1.924E-11	1.258E+7	9.986E+6	  -20.0567	   15.5922	    5.8558	  -22.1334	
