GCD Test
Bias: 5000.000000
CV_D0_CO138_LargeDiode_GRConnected_Irradiated_320min
Date/Time: 8/24/2021 11:30:04 AM
Sensor Name: CO138
Type: N
Annealing Status: Irradiated, Annealed at 60C for 320 minutes
Environment: -20C
Tester: Andrew Kent

Time Delay per Ramp Step (s): 0.500

CV Time Delay per Measurement (s) :0.500

AC Voltage (V): 0.500

Current Number of measurements per voltage: 4.000

IV Time Delay per Measurement (s) :0.000


BiasVoltage	LCR_Cp_freq1000.0	LCR_Cp_freq10000.0	LCR_Rp_freq1000.0	LCR_Rp_freq10000.0	Temperature	Air_Temp	Humidity	Dewpoint	
    1.0000	5.829E-11	3.878E-12	2.639E+6	2.919E+8	  -19.9702	   15.5087	    5.8735	  -22.1597	
    2.0000	3.984E-12	3.878E-12	2.551E+9	2.957E+8	  -19.9652	   15.5181	    5.8760	  -22.1480	
    3.0000	3.983E-12	3.879E-12	2.585E+9	2.946E+8	  -19.9880	   15.4812	    5.9197	  -22.0910	
    4.0000	3.983E-12	3.879E-12	2.537E+9	2.958E+8	  -20.0084	   15.4724	    5.9447	  -22.0497	
    5.0000	3.981E-12	3.879E-12	2.643E+9	2.950E+8	  -20.0211	   15.5338	    6.0085	  -21.8839	
    6.0000	3.981E-12	3.879E-12	2.725E+9	2.972E+8	  -20.0262	   15.5385	    6.0218	  -21.8554	
    7.0000	3.983E-12	3.879E-12	2.625E+9	2.959E+8	  -20.0135	   15.3900	    6.0123	  -21.9814	
    8.0000	3.983E-12	3.879E-12	2.589E+9	2.944E+8	  -19.9677	   15.4329	    5.9896	  -21.9931	
    9.0000	3.985E-12	3.879E-12	2.537E+9	2.954E+8	  -19.8888	   15.4556	    5.9633	  -22.0264	
   10.0000	3.984E-12	3.879E-12	2.515E+9	2.950E+8	  -19.8609	   15.4880	    5.9658	  -21.9981	
   20.0000	3.983E-12	3.877E-12	2.729E+9	3.062E+8	  -19.8634	   15.4164	    5.9820	  -22.0195	
   30.0000	3.982E-12	3.877E-12	2.571E+9	3.080E+8	  -19.9066	   15.3960	    6.0104	  -21.9805	
   40.0000	3.986E-12	3.880E-12	2.507E+9	2.835E+8	  -19.9372	   15.4073	    6.0009	  -21.9902	
   50.0000	3.980E-12	3.881E-12	2.524E+9	2.827E+8	  -20.0237	   15.4092	    6.0247	  -21.9441	
   60.0000	3.979E-12	3.874E-12	2.592E+9	3.004E+8	  -20.0618	   15.4092	    6.0648	  -21.8687	
   70.0000	3.984E-12	3.874E-12	2.391E+9	3.011E+8	  -20.0923	   15.4316	    6.1436	  -21.7059	
   80.0000	3.984E-12	3.874E-12	2.565E+9	3.013E+8	  -20.0872	   15.4219	    6.1467	  -21.7071	
   90.0000	3.982E-12	3.874E-12	2.380E+9	3.010E+8	  -20.0542	   15.4049	    6.1828	  -21.6530	
  100.0000	3.984E-12	3.875E-12	2.475E+9	2.990E+8	  -19.9652	   15.3883	    6.1932	  -21.6459	
  120.0000	3.983E-12	3.881E-12	2.627E+9	2.730E+8	  -19.6981	   15.4231	    6.2040	  -21.6007	
  140.0000	3.986E-12	3.884E-12	2.615E+9	2.858E+8	  -19.5810	   15.3926	    6.1926	  -21.6440	
  160.0000	3.984E-12	3.882E-12	2.440E+9	2.797E+8	  -19.4564	   15.3838	    6.1822	  -21.6695	
  180.0000	3.984E-12	3.881E-12	2.607E+9	2.681E+8	  -19.3241	   15.3358	    6.1344	  -21.7927	
  200.0000	3.984E-12	3.880E-12	2.710E+9	2.687E+8	  -19.2554	   15.3469	    6.1028	  -21.8433	
  220.0000	3.981E-12	3.884E-12	2.689E+9	2.861E+8	  -19.2885	   15.3450	    6.1180	  -21.8164	
  240.0000	3.990E-12	3.884E-12	2.693E+9	2.872E+8	  -19.3953	   15.3282	    6.0965	  -21.8687	
  260.0000	3.985E-12	3.881E-12	2.528E+9	2.710E+8	  -19.4564	   15.2918	    6.0829	  -21.9205	
  280.0000	3.985E-12	3.881E-12	2.584E+9	2.768E+8	  -19.5912	   15.3162	    6.1176	  -21.8381	
  300.0000	3.984E-12	3.882E-12	2.649E+9	2.828E+8	  -19.6803	   15.2895	    6.1439	  -21.8089	
  320.0000	3.984E-12	3.883E-12	2.680E+9	2.864E+8	  -19.8278	   15.3254	    6.1464	  -21.7781	
  340.0000	3.985E-12	3.879E-12	2.577E+9	2.700E+8	  -19.8736	   15.2796	    6.1689	  -21.7700	
  360.0000	3.984E-12	3.883E-12	2.677E+9	2.843E+8	  -19.9295	   15.2633	    6.1882	  -21.7464	
  380.0000	3.985E-12	3.884E-12	2.680E+9	2.853E+8	  -19.9245	   15.2357	    6.1951	  -21.7538	
  400.0000	3.986E-12	3.884E-12	2.728E+9	2.870E+8	  -19.8659	   15.2059	    6.1822	  -21.7993	
  420.0000	3.984E-12	3.877E-12	2.636E+9	2.666E+8	  -19.7795	   15.2088	    6.1512	  -21.8543	
  440.0000	3.894E-12	3.855E-12	-5.276E+8	2.853E+8	  -19.6930	   15.1857	    6.1654	  -21.8449	
  460.0000	3.934E-12	3.853E-12	2.775E+9	2.903E+8	  -19.6243	   15.2370	    6.1904	  -21.7616	
  480.0000	3.933E-12	3.853E-12	2.560E+9	2.917E+8	  -19.5760	   15.2166	    6.2195	  -21.7232	
  500.0000	3.933E-12	3.852E-12	2.754E+9	2.936E+8	  -19.5938	   15.1928	    6.2359	  -21.7105	
  520.0000	3.935E-12	3.852E-12	2.856E+9	2.963E+8	  -19.6192	   15.1931	    6.2527	  -21.6798	
  540.0000	3.934E-12	3.851E-12	2.901E+9	2.987E+8	  -19.6752	   15.1673	    6.2663	  -21.6739	
  560.0000	3.926E-12	3.851E-12	2.937E+9	2.998E+8	  -19.7082	   15.1632	    6.2682	  -21.6735	
  580.0000	3.928E-12	3.850E-12	2.793E+9	3.017E+8	  -19.7515	   15.1724	    6.2653	  -21.6720	
  600.0000	3.929E-12	3.849E-12	2.815E+9	3.045E+8	  -19.7922	   15.1240	    6.2796	  -21.6815	
  620.0000	3.924E-12	3.848E-12	2.944E+9	3.064E+8	  -19.8074	   15.1191	    6.2729	  -21.6971	
  640.0000	3.925E-12	3.848E-12	2.766E+9	3.083E+8	  -19.8024	   15.1683	    6.2780	  -21.6520	
  660.0000	3.925E-12	3.847E-12	2.820E+9	3.109E+8	  -19.7820	   15.2121	    6.2849	  -21.6074	
  680.0000	3.927E-12	3.846E-12	2.889E+9	3.136E+8	  -19.7413	   15.2125	    6.2843	  -21.6082	
  700.0000	3.922E-12	3.845E-12	2.920E+9	3.125E+8	  -19.6955	   15.2334	    6.2745	  -21.6107	
  720.0000	3.920E-12	3.844E-12	2.942E+9	3.151E+8	  -19.6599	   15.1765	    6.2770	  -21.6477	
  740.0000	3.917E-12	3.843E-12	3.077E+9	3.185E+8	  -19.5785	   15.1775	    6.2770	  -21.6470	
  760.0000	3.917E-12	3.842E-12	3.111E+9	3.162E+8	  -19.5480	   15.1736	    6.2853	  -21.6350	
  780.0000	3.912E-12	3.841E-12	2.526E+9	3.260E+8	  -19.5276	   15.0809	    6.2938	  -21.6873	
  800.0000	3.827E-12	3.830E-12	1.608E+9	3.703E+8	  -19.5352	   15.0925	    6.2887	  -21.6880	
  820.0000	3.824E-12	3.829E-12	1.567E+9	3.766E+8	  -19.5480	   15.0835	    6.2650	  -21.7375	
  840.0000	3.820E-12	3.828E-12	1.503E+9	3.822E+8	  -19.5658	   15.1491	    6.2413	  -21.7327	
  860.0000	3.819E-12	3.826E-12	1.470E+9	3.903E+8	  -19.6523	   15.1529	    6.2179	  -21.7726	
  880.0000	3.819E-12	3.825E-12	1.423E+9	4.013E+8	  -19.6930	   15.1031	    6.2113	  -21.8211	
  900.0000	3.824E-12	3.823E-12	1.316E+9	4.090E+8	  -19.7566	   15.1159	    6.1973	  -21.8372	
  920.0000	3.826E-12	3.822E-12	1.295E+9	4.154E+8	  -19.8685	   15.0780	    6.1749	  -21.9061	
  940.0000	3.835E-12	3.820E-12	1.230E+9	4.006E+8	  -19.9168	   15.0928	    6.1543	  -21.9331	
  960.0000	3.852E-12	3.819E-12	1.208E+9	4.081E+8	  -19.9550	   15.0921	    6.1518	  -21.9383	
  980.0000	3.859E-12	3.818E-12	1.240E+9	4.113E+8	  -19.9830	   15.0588	    6.1284	  -22.0058	
 1000.0000	3.862E-12	3.817E-12	1.305E+9	4.193E+8	  -20.0313	   15.0792	    6.1423	  -21.9652	
 1020.0000	3.869E-12	3.816E-12	1.452E+9	4.274E+8	  -20.0491	   15.0503	    6.1423	  -21.9863	
 1040.0000	3.851E-12	3.820E-12	1.959E+9	4.455E+8	  -20.0644	   15.0680	    6.1388	  -21.9798	
 1060.0000	3.854E-12	3.819E-12	1.843E+9	4.310E+8	  -20.0923	   15.1061	    6.1132	  -21.9994	
 1080.0000	3.852E-12	3.817E-12	1.905E+9	4.272E+8	  -20.0898	   15.1011	    6.0930	  -22.0407	
 1100.0000	3.851E-12	3.816E-12	1.927E+9	4.279E+8	  -20.0974	   15.1013	    6.0702	  -22.0830	
