GCD Test
Bias: 5000.000000
IV_D0_CO138_LargeDiode_GRConnected_Irradiated_190min
Date/Time: 8/5/2021 5:28:42 PM
Sensor Name: Pin153
Type: N
Annealing Status: Irradiated and Annealed at 60C for 190 Minutes
Environment: -20C
Tester: Andrew Kent

Time Delay per Ramp Step (s): 0.500

CV Time Delay per Measurement (s) :0.500

AC Voltage (V): 0.500

Current Number of measurements per voltage: 4.000

IV Time Delay per Measurement (s) :0.000


BiasVoltage	Total Current_Avg	Total Current_0	Total Current_1	Total Current_2	Total Current_3	Bias Current_Avg	Bias Current_0	Bias Current_1	Bias Current_2	Bias Current_3	Temperature	Air_Temp	Humidity	Dewpoint	
    1.0000	 2.9612E-7	 2.9540E-7	 2.9630E-7	 2.9560E-7	 2.9720E-7	2.995394E-7	2.987061E-7	3.011162E-7	2.996057E-7	2.987296E-7	  -20.0465	   11.9986	    5.8852	  -24.6905	
    2.0000	 4.0518E-7	 4.0520E-7	 4.0520E-7	 4.0630E-7	 4.0400E-7	4.029315E-7	4.050228E-7	4.022633E-7	4.028986E-7	4.015413E-7	  -20.0415	   11.9159	    5.8555	  -24.8067	
    3.0000	 4.8805E-7	 4.8910E-7	 4.8790E-7	 4.8870E-7	 4.8650E-7	4.878360E-7	4.876164E-7	4.859361E-7	4.900938E-7	4.876978E-7	  -20.0364	   11.8986	    5.8121	  -24.9013	
    4.0000	 5.6080E-7	 5.6080E-7	 5.6430E-7	 5.6080E-7	 5.5730E-7	5.601703E-7	5.583505E-7	5.593607E-7	5.602914E-7	5.626786E-7	  -20.0440	   11.8788	    5.7600	  -25.0152	
    5.0000	 6.3020E-7	 6.3230E-7	 6.2920E-7	 6.3000E-7	 6.2930E-7	6.312117E-7	6.291247E-7	6.328960E-7	6.293713E-7	6.334548E-7	  -20.0491	   11.8776	    5.7179	  -25.0969	
    6.0000	 6.9392E-7	 6.9070E-7	 6.9190E-7	 6.9550E-7	 6.9760E-7	6.923934E-7	6.968905E-7	6.895944E-7	6.917533E-7	6.913355E-7	  -20.0440	   11.8717	    5.6319	  -25.2681	
    7.0000	 7.4735E-7	 7.4480E-7	 7.4880E-7	 7.4630E-7	 7.4950E-7	7.485051E-7	7.491086E-7	7.500257E-7	7.464193E-7	7.484670E-7	  -20.0364	   11.8717	    5.6034	  -25.3238	
    8.0000	 8.0290E-7	 8.0150E-7	 8.0270E-7	 8.0450E-7	 8.0290E-7	8.012624E-7	8.038467E-7	7.986870E-7	8.023680E-7	8.001479E-7	  -20.0262	   11.9021	    5.5288	  -25.4490	
    9.0000	 8.5577E-7	 8.4850E-7	 8.5460E-7	 8.5990E-7	 8.6010E-7	8.543487E-7	8.530971E-7	8.479385E-7	8.552697E-7	8.610897E-7	  -20.0287	   11.8432	    5.4870	  -25.5748	
   10.0000	 9.0582E-7	 9.1210E-7	 9.0690E-7	 9.0640E-7	 8.9790E-7	9.020138E-7	8.989597E-7	9.061438E-7	9.007164E-7	9.022352E-7	  -20.0338	   11.8196	    5.4292	  -25.7081	
   20.0000	 1.3320E-6	 1.3300E-6	 1.3280E-6	 1.3310E-6	 1.3390E-6	1.337508E-6	1.337044E-6	1.334548E-6	1.338074E-6	1.340367E-6	  -20.0415	   11.8508	    5.3201	  -25.9077	
   30.0000	 1.6873E-6	 1.6850E-6	 1.6850E-6	 1.6870E-6	 1.6920E-6	1.683916E-6	1.689758E-6	1.687440E-6	1.682512E-6	1.675953E-6	  -20.0364	   11.8508	    5.2631	  -26.0253	
   40.0000	 2.0007E-6	 1.9930E-6	 1.9970E-6	 2.0080E-6	 2.0050E-6	2.004743E-6	2.010519E-6	2.004091E-6	2.004733E-6	1.999629E-6	  -20.0313	   11.7550	    5.2163	  -26.1918	
   50.0000	 2.2773E-6	 2.2760E-6	 2.2780E-6	 2.2750E-6	 2.2800E-6	2.291865E-6	2.298569E-6	2.286338E-6	2.292294E-6	2.290260E-6	  -20.0262	   11.7894	    5.1319	  -26.3448	
   60.0000	 2.5447E-6	 2.5520E-6	 2.5450E-6	 2.5530E-6	 2.5290E-6	2.537083E-6	2.533483E-6	2.534959E-6	2.542467E-6	2.537422E-6	  -20.0109	   11.8225	    5.0604	  -26.4736	
   70.0000	 2.7758E-6	 2.7810E-6	 2.7670E-6	 2.7790E-6	 2.7760E-6	2.787170E-6	2.785443E-6	2.800637E-6	2.788399E-6	2.774199E-6	  -20.0033	   11.8672	    4.9997	  -26.5728	
   80.0000	 3.0000E-6	 3.0050E-6	 2.9920E-6	 3.0030E-6	 3.0000E-6	3.003469E-6	3.008870E-6	3.000078E-6	3.013007E-6	2.991919E-6	  -20.0008	   11.8266	    4.9152	  -26.7868	
   90.0000	 3.2225E-6	 3.2310E-6	 3.2220E-6	 3.2190E-6	 3.2180E-6	3.224822E-6	3.225023E-6	3.226660E-6	3.225371E-6	3.222232E-6	  -19.9982	   11.8398	    4.8485	  -26.9254	
  100.0000	 3.4280E-6	 3.4260E-6	 3.4270E-6	 3.4300E-6	 3.4290E-6	3.418151E-6	3.426417E-6	3.418887E-6	3.416609E-6	3.410692E-6	  -19.9957	   11.7506	    4.7929	  -27.1141	
  120.0000	 3.7643E-6	 3.7710E-6	 3.7550E-6	 3.7560E-6	 3.7750E-6	3.765541E-6	3.762027E-6	3.765876E-6	3.766698E-6	3.767562E-6	  -19.9982	   11.7594	    4.7423	  -27.2224	
  140.0000	 4.1038E-6	 4.1070E-6	 4.0920E-6	 4.1100E-6	 4.1060E-6	4.098148E-6	4.111680E-6	4.107766E-6	4.080463E-6	4.092683E-6	  -19.9880	   11.7926	    4.6989	  -27.2978	
  160.0000	 4.4080E-6	 4.3890E-6	 4.4100E-6	 4.4030E-6	 4.4300E-6	4.413121E-6	4.408813E-6	4.410507E-6	4.429450E-6	4.403716E-6	  -20.0033	   11.7782	    4.6388	  -27.4468	
  180.0000	 4.6547E-6	 4.6510E-6	 4.6490E-6	 4.6550E-6	 4.6640E-6	4.666308E-6	4.664342E-6	4.688112E-6	4.672231E-6	4.640545E-6	  -19.9830	   11.7005	    4.5443	  -27.7237	
  200.0000	 4.9430E-6	 4.9390E-6	 4.9390E-6	 4.9530E-6	 4.9410E-6	4.943753E-6	4.948974E-6	4.930810E-6	4.949297E-6	4.945930E-6	  -19.9753	   11.7005	    4.4889	  -27.8553	
  220.0000	 5.1518E-6	 5.1670E-6	 5.1670E-6	 5.1390E-6	 5.1340E-6	5.134913E-6	5.144778E-6	5.132849E-6	5.130849E-6	5.131175E-6	  -19.9677	   11.6425	    4.4526	  -27.9837	
  240.0000	 5.3708E-6	 5.3570E-6	 5.3670E-6	 5.3860E-6	 5.3730E-6	5.371204E-6	5.386492E-6	5.374768E-6	5.371297E-6	5.352260E-6	  -19.9728	   11.5932	    4.4061	  -28.1311	
  260.0000	 5.5440E-6	 5.5430E-6	 5.5440E-6	 5.5410E-6	 5.5480E-6	5.569253E-6	5.561173E-6	5.568077E-6	5.561802E-6	5.585959E-6	  -19.9753	   11.5743	    4.3558	  -28.2672	
  280.0000	 5.6968E-6	 5.7140E-6	 5.6870E-6	 5.7060E-6	 5.6800E-6	5.670075E-6	5.647880E-6	5.662378E-6	5.695940E-6	5.674102E-6	  -19.9753	   11.6617	    4.2641	  -28.4329	
  300.0000	 5.8695E-6	 5.8930E-6	 5.8950E-6	 5.8530E-6	 5.8370E-6	5.844728E-6	5.841889E-6	5.866765E-6	5.842957E-6	5.827302E-6	  -19.9830	   11.6617	    4.2182	  -28.5482	
  320.0000	 6.0167E-6	 6.0220E-6	 6.0130E-6	 6.0170E-6	 6.0150E-6	5.983679E-6	5.997629E-6	5.975461E-6	5.977173E-6	5.984454E-6	  -19.9779	   11.6343	    4.1727	  -28.6832	
  340.0000	 6.1502E-6	 6.1380E-6	 6.1490E-6	 6.1490E-6	 6.1650E-6	6.133355E-6	6.141630E-6	6.122522E-6	6.129917E-6	6.139350E-6	  -19.9855	   11.6759	    4.1420	  -28.7324	
  360.0000	 6.2835E-6	 6.3010E-6	 6.2950E-6	 6.2740E-6	 6.2640E-6	6.256372E-6	6.227219E-6	6.257365E-6	6.283133E-6	6.257773E-6	  -19.9855	   11.5865	    4.0572	  -29.0151	
  380.0000	 6.4097E-6	 6.4230E-6	 6.4220E-6	 6.3980E-6	 6.3960E-6	6.380003E-6	6.358247E-6	6.386779E-6	6.399080E-6	6.375908E-6	  -19.9880	   11.5865	    4.0326	  -29.0798	
  400.0000	 6.5123E-6	 6.5060E-6	 6.4790E-6	 6.5140E-6	 6.5500E-6	6.527800E-6	6.548192E-6	6.544701E-6	6.528763E-6	6.489545E-6	  -19.9779	   11.5347	    3.9817	  -29.2508	
  420.0000	 6.6215E-6	 6.6240E-6	 6.6150E-6	 6.6320E-6	 6.6150E-6	6.594653E-6	6.585086E-6	6.603437E-6	6.609433E-6	6.580655E-6	  -19.9906	   11.4495	    3.9412	  -29.4187	
  440.0000	 6.7510E-6	 6.7650E-6	 6.7560E-6	 6.7550E-6	 6.7280E-6	6.710911E-6	6.720476E-6	6.709310E-6	6.697350E-6	6.716508E-6	  -19.9906	   11.4692	    3.8931	  -29.5346	
  460.0000	 6.8228E-6	 6.8160E-6	 6.8320E-6	 6.8020E-6	 6.8410E-6	6.814208E-6	6.829225E-6	6.821140E-6	6.809732E-6	6.796737E-6	  -19.9957	   11.4830	    3.8479	  -29.6483	
  480.0000	 6.9445E-6	 6.9650E-6	 6.9350E-6	 6.9320E-6	 6.9460E-6	6.910591E-6	6.906355E-6	6.915022E-6	6.907529E-6	6.913458E-6	  -19.9906	   11.4085	    3.8131	  -29.7961	
  500.0000	 6.9955E-6	 6.9850E-6	 6.9770E-6	 7.0040E-6	 7.0160E-6	7.010560E-6	6.993811E-6	7.032678E-6	7.026612E-6	6.989140E-6	  -20.0109	   11.4658	    3.7679	  -29.8818	
  520.0000	 7.0950E-6	 7.0800E-6	 7.0930E-6	 7.1060E-6	 7.1010E-6	7.064333E-6	7.063675E-6	7.066764E-6	7.055141E-6	7.071752E-6	  -19.9982	   11.5016	    3.7410	  -29.9322	
  540.0000	 7.1948E-6	 7.1870E-6	 7.1760E-6	 7.2030E-6	 7.2130E-6	7.177390E-6	7.171908E-6	7.223256E-6	7.149839E-6	7.164556E-6	  -20.0109	   11.5137	    3.7116	  -30.0068	
  560.0000	 7.2400E-6	 7.2310E-6	 7.2100E-6	 7.2710E-6	 7.2480E-6	7.253652E-6	7.248925E-6	7.248092E-6	7.258494E-6	7.259095E-6	  -20.0135	   11.5244	    3.6657	  -30.1300	
  580.0000	 7.3595E-6	 7.3600E-6	 7.3460E-6	 7.3660E-6	 7.3660E-6	7.306078E-6	7.276283E-6	7.301730E-6	7.315767E-6	7.330533E-6	  -20.0135	   11.4564	    3.6224	  -30.3020	
  600.0000	 7.4002E-6	 7.4470E-6	 7.4050E-6	 7.3700E-6	 7.3790E-6	7.400136E-6	7.378388E-6	7.397206E-6	7.406031E-6	7.418918E-6	  -20.0135	   11.4564	    3.6012	  -30.3635	
  620.0000	 7.4755E-6	 7.5020E-6	 7.4520E-6	 7.4820E-6	 7.4660E-6	7.445421E-6	7.442792E-6	7.438840E-6	7.460087E-6	7.439963E-6	  -20.0084	   11.4072	    3.5702	  -30.4881	
  640.0000	 7.5150E-6	 7.5240E-6	 7.5160E-6	 7.4960E-6	 7.5240E-6	7.502941E-6	7.498062E-6	7.508448E-6	7.526065E-6	7.479191E-6	  -20.0084	   11.4023	    3.5357	  -30.5931	
  660.0000	 7.6420E-6	 7.6540E-6	 7.6250E-6	 7.6370E-6	 7.6520E-6	7.645021E-6	7.653361E-6	7.635457E-6	7.613685E-6	7.677581E-6	  -20.0186	   11.4305	    3.5133	  -30.6401	
  680.0000	 7.7138E-6	 7.7190E-6	 7.7160E-6	 7.7090E-6	 7.7110E-6	7.662108E-6	7.639816E-6	7.636353E-6	7.680816E-6	7.691446E-6	  -20.0084	   11.4885	    3.4877	  -30.6765	
  700.0000	 7.7697E-6	 7.7510E-6	 7.7470E-6	 7.7780E-6	 7.8030E-6	7.779279E-6	7.765028E-6	7.801934E-6	7.769083E-6	7.781070E-6	  -20.0135	   11.3546	    3.4668	  -30.8318	
  720.0000	 7.8802E-6	 7.8850E-6	 7.8640E-6	 7.9070E-6	 7.8650E-6	7.828672E-6	7.821031E-6	7.838564E-6	7.840156E-6	7.814936E-6	  -20.0084	   11.3968	    3.4674	  -30.8007	
  740.0000	 7.9655E-6	 7.9570E-6	 7.9980E-6	 7.9740E-6	 7.9330E-6	7.932704E-6	7.920658E-6	7.901137E-6	7.964516E-6	7.944505E-6	  -20.0059	   11.4032	    3.4488	  -30.8526	
  760.0000	 7.9865E-6	 8.0020E-6	 7.9880E-6	 7.9630E-6	 7.9930E-6	7.911673E-6	7.987969E-6	7.924755E-6	7.871862E-6	7.862106E-6	  -20.0364	   11.3460	    3.4181	  -30.9852	
  780.0000	 8.0437E-6	 8.0360E-6	 8.0800E-6	 8.0520E-6	 8.0070E-6	7.970040E-6	7.989855E-6	7.981470E-6	7.968238E-6	7.940596E-6	  -20.0644	   11.3969	    3.4203	  -30.9433	
  800.0000	 8.1322E-6	 8.1430E-6	 8.1300E-6	 8.1580E-6	 8.0980E-6	8.068287E-6	8.040821E-6	8.067860E-6	8.084643E-6	8.079825E-6	  -20.1051	   11.3969	    3.4456	  -30.8664	
  820.0000	 8.2465E-6	 8.2450E-6	 8.2460E-6	 8.2520E-6	 8.2430E-6	8.217831E-6	8.196626E-6	8.189043E-6	8.243520E-6	8.242133E-6	  -20.1457	   11.5259	    3.4608	  -30.7315	
  840.0000	 8.2930E-6	 8.3060E-6	 8.3080E-6	 8.2610E-6	 8.2970E-6	8.280296E-6	8.301869E-6	8.285920E-6	8.259111E-6	8.274284E-6	  -20.1839	   11.7368	    3.4782	  -30.5333	
  860.0000	 8.4295E-6	 8.4560E-6	 8.4100E-6	 8.4100E-6	 8.4420E-6	8.405118E-6	8.433492E-6	8.414525E-6	8.382630E-6	8.389824E-6	  -20.2068	   11.7698	    3.5003	  -30.4441	
  880.0000	 8.6310E-6	 8.6300E-6	 8.6580E-6	 8.6150E-6	 8.6210E-6	8.581992E-6	8.602677E-6	8.576134E-6	8.571363E-6	8.577796E-6	  -20.2221	   11.8415	    3.5180	  -30.3416	
  900.0000	 8.7920E-6	 8.7880E-6	 8.8180E-6	 8.8010E-6	 8.7610E-6	8.725831E-6	8.717054E-6	8.693271E-6	8.754480E-6	8.738521E-6	  -20.2348	   11.9837	    3.5392	  -30.1802	
  920.0000	 8.9150E-6	 8.9110E-6	 8.8970E-6	 8.8840E-6	 8.9680E-6	8.953589E-6	8.963314E-6	8.985686E-6	8.934269E-6	8.931089E-6	  -20.2449	   12.0541	    3.5402	  -30.1287	
  940.0000	 9.0823E-6	 9.0840E-6	 9.0790E-6	 9.0530E-6	 9.1130E-6	9.102332E-6	9.064891E-6	9.111782E-6	9.102901E-6	9.129756E-6	  -20.2399	   12.1516	    3.5629	  -29.9938	
  960.0000	 9.3020E-6	 9.2690E-6	 9.2940E-6	 9.3300E-6	 9.3150E-6	9.261856E-6	9.292948E-6	9.263045E-6	9.234041E-6	9.257389E-6	  -20.2297	   12.1850	    3.5753	  -29.9343	
  980.0000	 9.4562E-6	 9.4610E-6	 9.4530E-6	 9.4670E-6	 9.4440E-6	9.456129E-6	9.440767E-6	9.472182E-6	9.456046E-6	9.455521E-6	  -20.2221	   12.2417	    3.5974	  -29.8301	
 1000.0000	 9.6813E-6	 9.6730E-6	 9.6820E-6	 9.6800E-6	 9.6900E-6	9.655558E-6	9.677376E-6	9.666927E-6	9.639358E-6	9.638572E-6	  -20.2068	   12.2846	    3.6192	  -29.7366	
