GCD Test
Bias: 5000.000000
IV_34331_042_2-S_HM_XX_IRRADSENSOR_GRCONNECTED
Date/Time: 9/10/2021 3:47:30 PM
Sensor Name: IRRADSENSOR
Type: P
Annealing Status: Not Irradiated and Not Annealed
Environment: 20C
Tester: Andrew Kent

Time Delay per Ramp Step (s): 0.500

CV Time Delay per Measurement (s) :0.500

AC Voltage (V): 0.500

Current Number of measurements per voltage: 1.000

IV Time Delay per Measurement (s) :0.000


BiasVoltage	Total Current_Avg	Total Current_0	Bias Current_Avg	Bias Current_0	Temperature	Air_Temp	Humidity	Dewpoint	
   -5.0000	-7.2900E-10	-7.2900E-10	-1.393281E-8	-1.393281E-8	   19.9936	   21.7533	   12.8232	   -7.4013	
  -10.0000	-8.9800E-10	-8.9800E-10	-1.428007E-8	-1.428007E-8	   19.9961	   21.7535	   12.1790	   -8.0323	
  -15.0000	-1.0510E-9	-1.0510E-9	-1.329694E-8	-1.329694E-8	   19.9961	   21.7478	   12.1790	   -8.6969	
  -20.0000	-1.1940E-9	-1.1940E-9	-1.262143E-8	-1.262143E-8	   20.0064	   21.7510	   11.5225	   -9.3999	
  -25.0000	-1.3290E-9	-1.3290E-9	-1.305485E-8	-1.305485E-8	   20.0116	   21.7530	   11.1455	   -9.8198	
  -30.0000	-1.4100E-9	-1.4100E-9	-1.049787E-8	-1.049787E-8	   20.0116	   21.7465	   10.8295	  -10.1879	
  -35.0000	-1.3120E-9	-1.3120E-9	-1.050231E-8	-1.050231E-8	   20.0116	   21.7540	   10.5376	  -10.5261	
  -40.0000	-1.4260E-9	-1.4260E-9	-9.263104E-9	-9.263104E-9	   20.0090	   21.7541	   10.3150	  -10.7941	
  -45.0000	-1.3860E-9	-1.3860E-9	-6.793654E-9	-6.793654E-9	   20.0039	   21.7541	    9.9839	  -10.7941	
  -50.0000	-1.5110E-9	-1.5110E-9	-5.103356E-9	-5.103356E-9	   20.0039	   21.7489	    9.9839	  -11.2064	
  -55.0000	-1.4290E-9	-1.4290E-9	-2.902112E-9	-2.902112E-9	   19.9987	   21.7562	    9.7302	  -11.5219	
  -60.0000	-1.5210E-9	-1.5210E-9	-1.586244E-9	-1.586244E-9	   19.9961	   21.7494	    9.5838	  -11.7159	
  -65.0000	-1.4800E-9	-1.4800E-9	-1.091514E-9	-1.091514E-9	   19.9936	   21.7471	    9.4769	  -11.8570	
  -70.0000	-1.5480E-9	-1.5480E-9	-9.996663E-10	-9.996663E-10	   19.9936	   21.7471	    9.3068	  -11.8570	
  -75.0000	-1.5690E-9	-1.5690E-9	-9.831707E-10	-9.831707E-10	   19.9936	   21.7461	    9.3068	  -12.0826	
  -80.0000	-1.5780E-9	-1.5780E-9	-9.864383E-10	-9.864383E-10	   19.9936	   21.7479	    9.2037	  -12.2192	
  -85.0000	-1.6230E-9	-1.6230E-9	-9.911278E-10	-9.911278E-10	   19.9961	   21.7460	    9.1265	  -12.3249	
  -90.0000	-1.6130E-9	-1.6130E-9	-9.940168E-10	-9.940168E-10	   19.9987	   21.7460	    9.0089	  -12.3249	
  -95.0000	-1.6630E-9	-1.6630E-9	-9.964853E-10	-9.964853E-10	   19.9987	   21.7470	    9.0089	  -12.4846	
 -100.0000	-1.7110E-9	-1.7110E-9	-1.000278E-9	-1.000278E-9	   20.0039	   21.7415	    8.9137	  -12.6199	
 -105.0000	-1.6960E-9	-1.6960E-9	-1.003474E-9	-1.003474E-9	   20.0090	   21.7415	    8.8261	  -12.6199	
 -110.0000	-1.7050E-9	-1.7050E-9	-1.005943E-9	-1.005943E-9	   20.0090	   21.7469	    8.8261	  -12.7376	
 -115.0000	-1.7740E-9	-1.7740E-9	-1.009688E-9	-1.009688E-9	   20.0116	   21.7417	    8.7543	  -12.8422	
 -120.0000	-1.6620E-9	-1.6620E-9	-1.012425E-9	-1.012425E-9	   20.0116	   21.7497	    8.6929	  -12.9227	
 -125.0000	-1.7440E-9	-1.7440E-9	-1.015327E-9	-1.015327E-9	   20.0116	   21.7497	    8.6312	  -12.9227	
 -130.0000	-1.8320E-9	-1.8320E-9	-1.019864E-9	-1.019864E-9	   20.0116	   21.7497	    8.6312	  -13.0103	
 -135.0000	-1.7510E-9	-1.7510E-9	-1.020679E-9	-1.020679E-9	   20.0090	   21.7517	    8.5895	  -13.0684	
 -140.0000	-1.7510E-9	-1.7510E-9	-1.023376E-9	-1.023376E-9	   20.0090	   21.7529	    8.5474	  -13.1278	
 -145.0000	-1.7640E-9	-1.7640E-9	-1.026343E-9	-1.026343E-9	   20.0064	   21.7544	    8.4877	  -13.2129	
 -150.0000	-1.9340E-9	-1.9340E-9	-1.030164E-9	-1.030164E-9	   20.0039	   21.7544	    8.4377	  -13.2129	
 -155.0000	-1.8440E-9	-1.8440E-9	-1.033717E-9	-1.033717E-9	   20.0039	   21.7452	    8.4377	  -13.2922	
 -160.0000	-1.8220E-9	-1.8220E-9	-1.034593E-9	-1.034593E-9	   19.9987	   21.7488	    8.3931	  -13.3545	
 -165.0000	-1.8880E-9	-1.8880E-9	-1.037867E-9	-1.037867E-9	   19.9961	   21.7491	    8.3653	  -13.3950	
 -170.0000	-1.7920E-9	-1.7920E-9	-1.039417E-9	-1.039417E-9	   19.9910	   21.7491	    8.3140	  -13.3950	
 -175.0000	-1.8670E-9	-1.8670E-9	-1.042512E-9	-1.042512E-9	   19.9910	   21.7457	    8.3140	  -13.4727	
 -180.0000	-1.8370E-9	-1.8370E-9	-1.044783E-9	-1.044783E-9	   19.9910	   21.7440	    8.2758	  -13.5305	
 -185.0000	-1.8880E-9	-1.8880E-9	-1.047088E-9	-1.047088E-9	   19.9910	   21.7440	    8.2337	  -13.5305	
 -190.0000	-1.9730E-9	-1.9730E-9	-1.050060E-9	-1.050060E-9	   19.9910	   21.7412	    8.2337	  -13.5950	
 -195.0000	-1.9050E-9	-1.9050E-9	-1.053045E-9	-1.053045E-9	   19.9961	   21.7494	    8.1828	  -13.6647	
 -200.0000	-1.9150E-9	-1.9150E-9	-1.055483E-9	-1.055483E-9	   19.9987	   21.7494	    8.1569	  -13.6647	
 -205.0000	-2.0380E-9	-2.0380E-9	-1.060529E-9	-1.060529E-9	   19.9987	   21.7503	    8.1569	  -13.7028	
 -210.0000	-1.9220E-9	-1.9220E-9	-1.060975E-9	-1.060975E-9	   20.0039	   21.7407	    8.1423	  -13.7318	
 -215.0000	-1.9540E-9	-1.9540E-9	-1.064707E-9	-1.064707E-9	   20.0090	   21.7442	    8.1006	  -13.7920	
 -220.0000	-1.9670E-9	-1.9670E-9	-1.069208E-9	-1.069208E-9	   20.0116	   21.7442	    8.0746	  -13.7920	
 -225.0000	-1.9800E-9	-1.9800E-9	-1.073067E-9	-1.073067E-9	   20.0116	   21.7477	    8.0746	  -13.8285	
 -230.0000	-1.9860E-9	-1.9860E-9	-1.076805E-9	-1.076805E-9	   20.0142	   21.7444	    8.0550	  -13.8607	
 -235.0000	-2.0030E-9	-2.0030E-9	-1.082941E-9	-1.082941E-9	   20.0116	   21.7444	    8.0152	  -13.8607	
 -240.0000	-2.0150E-9	-2.0150E-9	-1.086662E-9	-1.086662E-9	   20.0116	   21.7408	    8.0152	  -13.9239	
 -245.0000	-2.1690E-9	-2.1690E-9	-1.093371E-9	-1.093371E-9	   20.0090	   21.7400	    8.0009	  -13.9461	
 -250.0000	-2.0010E-9	-2.0010E-9	-1.099403E-9	-1.099403E-9	   20.0064	   21.7400	    7.9779	  -13.9461	
 -255.0000	-2.0870E-9	-2.0870E-9	-1.105648E-9	-1.105648E-9	   20.0064	   21.7435	    7.9779	  -13.9787	
 -260.0000	-2.0830E-9	-2.0830E-9	-1.113099E-9	-1.113099E-9	   19.9987	   21.7435	    7.9409	  -13.9787	
 -265.0000	-2.2050E-9	-2.2050E-9	-1.122233E-9	-1.122233E-9	   19.9987	   21.7441	    7.9409	  -14.0350	
 -270.0000	-2.1860E-9	-2.1860E-9	-1.131615E-9	-1.131615E-9	   19.9961	   21.7421	    7.9197	  -14.0690	
 -275.0000	-2.0750E-9	-2.0750E-9	-1.140474E-9	-1.140474E-9	   19.9936	   21.7421	    7.8941	  -14.0690	
 -280.0000	-2.1470E-9	-2.1470E-9	-1.149919E-9	-1.149919E-9	   19.9936	   21.7421	    7.8941	  -14.1085	
 -285.0000	-2.1870E-9	-2.1870E-9	-1.159336E-9	-1.159336E-9	   19.9936	   21.7426	    7.8697	  -14.1457	
 -290.0000	-2.1430E-9	-2.1430E-9	-1.168742E-9	-1.168742E-9	   19.9936	   21.7426	    7.8605	  -14.1457	
 -295.0000	-2.3050E-9	-2.3050E-9	-1.177573E-9	-1.177573E-9	   19.9936	   21.7399	    7.8605	  -14.1619	
 -300.0000	-2.2200E-9	-2.2200E-9	-1.185474E-9	-1.185474E-9	   20.0013	   21.7420	    7.8318	  -14.2050	
 -305.0000	-2.2410E-9	-2.2410E-9	-1.192945E-9	-1.192945E-9	   20.0039	   21.7420	    7.8201	  -14.2050	
 -310.0000	-2.3320E-9	-2.3320E-9	-1.200408E-9	-1.200408E-9	   20.0039	   21.7412	    7.8201	  -14.2237	
 -315.0000	-2.2600E-9	-2.2600E-9	-1.205237E-9	-1.205237E-9	   20.0064	   21.7395	    7.8134	  -14.2353	
 -320.0000	-2.2620E-9	-2.2620E-9	-1.210397E-9	-1.210397E-9	   20.0090	   21.7439	    7.7966	  -14.2582	
 -325.0000	-2.2720E-9	-2.2720E-9	-1.214940E-9	-1.214940E-9	   20.0090	   21.7410	    7.7906	  -14.2697	
 -330.0000	-2.2750E-9	-2.2750E-9	-1.218462E-9	-1.218462E-9	   20.0090	   21.7410	    7.7729	  -14.2697	
 -335.0000	-2.3030E-9	-2.3030E-9	-1.221798E-9	-1.221798E-9	   20.0090	   21.7399	    7.7729	  -14.2983	
 -340.0000	-2.3090E-9	-2.3090E-9	-1.225206E-9	-1.225206E-9	   20.0064	   21.7391	    7.7581	  -14.3221	
 -345.0000	-2.2800E-9	-2.2800E-9	-1.228449E-9	-1.228449E-9	   20.0039	   21.7391	    7.7362	  -14.3221	
 -350.0000	-2.2950E-9	-2.2950E-9	-1.230784E-9	-1.230784E-9	   20.0039	   21.7393	    7.7362	  -14.3562	
 -355.0000	-2.3050E-9	-2.3050E-9	-1.234133E-9	-1.234133E-9	   20.0039	   21.7366	    7.7242	  -14.3771	
 -360.0000	-2.3520E-9	-2.3520E-9	-1.236659E-9	-1.236659E-9	   19.9987	   21.7366	    7.7100	  -14.3771	
 -365.0000	-2.3140E-9	-2.3140E-9	-1.239550E-9	-1.239550E-9	   19.9987	   21.7342	    7.7100	  -14.4012	
 -370.0000	-2.5240E-9	-2.5240E-9	-1.241590E-9	-1.241590E-9	   19.9961	   21.7391	    7.6999	  -14.4136	
 -375.0000	-2.3550E-9	-2.3550E-9	-1.244835E-9	-1.244835E-9	   19.9936	   21.7391	    7.6781	  -14.4136	
 -380.0000	-2.4110E-9	-2.4110E-9	-1.247420E-9	-1.247420E-9	   19.9936	   21.7391	    7.6781	  -14.4480	
 -385.0000	-2.3600E-9	-2.3600E-9	-1.250647E-9	-1.250647E-9	   19.9936	   21.7377	    7.6717	  -14.4591	
 -390.0000	-2.4260E-9	-2.4260E-9	-1.252267E-9	-1.252267E-9	   19.9936	   21.7402	    7.6591	  -14.4773	
 -395.0000	-2.5550E-9	-2.5550E-9	-1.255161E-9	-1.255161E-9	   19.9936	   21.7373	    7.6490	  -14.4954	
 -400.0000	-2.4440E-9	-2.4440E-9	-1.257337E-9	-1.257337E-9	   19.9961	   21.7373	    7.6341	  -14.4954	
 -410.0000	-2.6170E-9	-2.6170E-9	-1.262696E-9	-1.262696E-9	   19.9961	   21.7373	    7.6341	  -14.5190	
 -420.0000	-2.5740E-9	-2.5740E-9	-1.267446E-9	-1.267446E-9	   19.9987	   21.7373	    7.6275	  -14.5190	
 -430.0000	-2.6360E-9	-2.6360E-9	-1.271401E-9	-1.271401E-9	   19.9987	   21.7289	    7.6275	  -14.5358	
 -440.0000	-2.6370E-9	-2.6370E-9	-1.276529E-9	-1.276529E-9	   20.0039	   21.7303	    7.6110	  -14.5610	
 -450.0000	-2.6660E-9	-2.6660E-9	-1.280308E-9	-1.280308E-9	   20.0039	   21.7303	    7.6110	  -14.5610	
 -460.0000	-2.6920E-9	-2.6920E-9	-1.284074E-9	-1.284074E-9	   20.0064	   21.7339	    7.6056	  -14.5669	
 -470.0000	-2.7340E-9	-2.7340E-9	-1.287780E-9	-1.287780E-9	   20.0090	   21.7339	    7.5857	  -14.5669	
 -480.0000	-2.8170E-9	-2.8170E-9	-1.290910E-9	-1.290910E-9	   20.0090	   21.7307	    7.5857	  -14.6010	
 -490.0000	-2.9570E-9	-2.9570E-9	-1.294078E-9	-1.294078E-9	   20.0090	   21.7296	    7.5800	  -14.6110	
 -500.0000	-2.8650E-9	-2.8650E-9	-1.297934E-9	-1.297934E-9	   20.0090	   21.7296	    7.5721	  -14.6110	
 -510.0000	-2.9000E-9	-2.9000E-9	-1.301542E-9	-1.301542E-9	   20.0090	   21.7296	    7.5721	  -14.6236	
 -520.0000	-2.9120E-9	-2.9120E-9	-1.304272E-9	-1.304272E-9	   20.0039	   21.7296	    7.5566	  -14.6236	
 -530.0000	-2.9500E-9	-2.9500E-9	-1.308082E-9	-1.308082E-9	   20.0039	   21.7242	    7.5566	  -14.6525	
 -540.0000	-2.9890E-9	-2.9890E-9	-1.310789E-9	-1.310789E-9	   20.0013	   21.7265	    7.5455	  -14.6685	
 -550.0000	-2.9610E-9	-2.9610E-9	-1.313310E-9	-1.313310E-9	   19.9987	   21.7265	    7.5443	  -14.6685	
 -560.0000	-3.1130E-9	-3.1130E-9	-1.317702E-9	-1.317702E-9	   19.9987	   21.7277	    7.5443	  -14.6697	
 -570.0000	-3.0540E-9	-3.0540E-9	-1.320234E-9	-1.320234E-9	   19.9936	   21.7222	    7.5345	  -14.6895	
 -580.0000	-3.1800E-9	-3.1800E-9	-1.323937E-9	-1.323937E-9	   19.9936	   21.7271	    7.5342	  -14.6863	
 -590.0000	-3.2410E-9	-3.2410E-9	-1.326624E-9	-1.326624E-9	   19.9936	   21.7231	    7.5313	  -14.6939	
 -600.0000	-3.0860E-9	-3.0860E-9	-1.331118E-9	-1.331118E-9	   19.9936	   21.7231	    7.5187	  -14.6939	
 -610.0000	-3.1560E-9	-3.1560E-9	-1.334154E-9	-1.334154E-9	   19.9936	   21.7231	    7.5187	  -14.7143	
 -620.0000	-3.1960E-9	-3.1960E-9	-1.338508E-9	-1.338508E-9	   19.9961	   21.7227	    7.5101	  -14.7283	
 -630.0000	-3.2090E-9	-3.2090E-9	-1.342344E-9	-1.342344E-9	   19.9987	   21.7227	    7.4940	  -14.7283	
 -640.0000	-3.2500E-9	-3.2500E-9	-1.345552E-9	-1.345552E-9	   19.9987	   21.7213	    7.4940	  -14.7554	
 -650.0000	-3.2820E-9	-3.2820E-9	-1.349004E-9	-1.349004E-9	   20.0039	   21.7213	    7.4883	  -14.7554	
 -660.0000	-3.3090E-9	-3.3090E-9	-1.351887E-9	-1.351887E-9	   20.0039	   21.7134	    7.4883	  -14.7705	
 -670.0000	-3.4350E-9	-3.4350E-9	-1.355789E-9	-1.355789E-9	   20.0064	   21.7158	    7.4861	  -14.7723	
 -680.0000	-3.3670E-9	-3.3670E-9	-1.358645E-9	-1.358645E-9	   20.0090	   21.7158	    7.4779	  -14.7723	
 -690.0000	-3.4720E-9	-3.4720E-9	-1.363864E-9	-1.363864E-9	   20.0090	   21.7158	    7.4779	  -14.7856	
 -700.0000	-3.4010E-9	-3.4010E-9	-1.364612E-9	-1.364612E-9	   20.0116	   21.7131	    7.4690	  -14.8019	
 -710.0000	-3.4540E-9	-3.4540E-9	-1.366962E-9	-1.366962E-9	   20.0090	   21.7185	    7.4712	  -14.7943	
 -720.0000	-3.4410E-9	-3.4410E-9	-1.370885E-9	-1.370885E-9	   20.0090	   21.7185	    7.4529	  -14.7943	
 -730.0000	-3.5080E-9	-3.5080E-9	-1.373238E-9	-1.373238E-9	   20.0090	   21.7148	    7.4529	  -14.8268	
 -740.0000	-3.5320E-9	-3.5320E-9	-1.375632E-9	-1.375632E-9	   20.0039	   21.7144	    7.4437	  -14.8420	
 -750.0000	-3.5190E-9	-3.5190E-9	-1.379316E-9	-1.379316E-9	   20.0013	   21.7144	    7.4469	  -14.8420	
 -760.0000	-3.6050E-9	-3.6050E-9	-1.382577E-9	-1.382577E-9	   20.0013	   21.7167	    7.4469	  -14.8352	
 -770.0000	-3.5650E-9	-3.5650E-9	-1.384864E-9	-1.384864E-9	   19.9936	   21.7167	    7.4345	  -14.8352	
 -780.0000	-3.5990E-9	-3.5990E-9	-1.388407E-9	-1.388407E-9	   19.9936	   21.7106	    7.4345	  -14.8597	
 -790.0000	-3.6790E-9	-3.6790E-9	-1.392233E-9	-1.392233E-9	   19.9910	   21.7123	    7.4374	  -14.8538	
 -800.0000	-3.7020E-9	-3.7020E-9	-1.394546E-9	-1.394546E-9	   19.9910	   21.7064	    7.4317	  -14.8674	
 -810.0000	-3.7800E-9	-3.7800E-9	-1.399639E-9	-1.399639E-9	   19.9910	   21.7064	    7.4219	  -14.8674	
 -820.0000	-3.9270E-9	-3.9270E-9	-1.403242E-9	-1.403242E-9	   19.9910	   21.7079	    7.4219	  -14.8823	
 -830.0000	-3.8720E-9	-3.8720E-9	-1.406732E-9	-1.406732E-9	   19.9936	   21.7084	    7.4200	  -14.8850	
 -840.0000	-3.9680E-9	-3.9680E-9	-1.410510E-9	-1.410510E-9	   19.9961	   21.7040	    7.4140	  -14.8980	
 -850.0000	-3.9860E-9	-3.9860E-9	-1.414739E-9	-1.414739E-9	   20.0013	   21.7040	    7.4077	  -14.8980	
 -860.0000	-3.9850E-9	-3.9850E-9	-1.419842E-9	-1.419842E-9	   20.0013	   21.7086	    7.4077	  -14.9050	
 -870.0000	-4.0680E-9	-4.0680E-9	-1.422004E-9	-1.422004E-9	   20.0090	   21.7074	    7.4064	  -14.9080	
 -880.0000	-4.2520E-9	-4.2520E-9	-1.425514E-9	-1.425514E-9	   20.0116	   21.7073	    7.4016	  -14.9158	
 -890.0000	-4.1900E-9	-4.1900E-9	-1.429258E-9	-1.429258E-9	   20.0167	   21.7073	    7.3941	  -14.9158	
 -900.0000	-4.4120E-9	-4.4120E-9	-1.433713E-9	-1.433713E-9	   20.0167	   21.7073	    7.3941	  -14.9282	
 -910.0000	-4.3170E-9	-4.3170E-9	-1.435501E-9	-1.435501E-9	   20.0142	   21.7078	    7.3934	  -14.9288	
 -920.0000	-4.4240E-9	-4.4240E-9	-1.437315E-9	-1.437315E-9	   20.0142	   21.7050	    7.3906	  -14.9356	
 -930.0000	-4.6130E-9	-4.6130E-9	-1.441344E-9	-1.441344E-9	   20.0142	   21.7070	    7.3767	  -14.9568	
 -940.0000	-4.7740E-9	-4.7740E-9	-1.444509E-9	-1.444509E-9	   20.0090	   21.7052	    7.3767	  -14.9582	
 -950.0000	-4.8810E-9	-4.8810E-9	-1.447482E-9	-1.447482E-9	   20.0090	   21.7052	    7.3767	  -14.9582	
 -960.0000	-5.2080E-9	-5.2080E-9	-1.451650E-9	-1.451650E-9	   20.0064	   21.7013	    7.3763	  -14.9616	
 -970.0000	-6.4330E-9	-6.4330E-9	-1.454379E-9	-1.454379E-9	   20.0013	   21.7013	    7.3697	  -14.9616	
 -980.0000	-4.7070E-8	-4.7070E-8	-1.459446E-9	-1.459446E-9	   20.0013	   21.7044	    7.3697	  -14.9701	
 -990.0000	-9.9800E-8	-9.9800E-8	0.000000E+0	0.000000E+0	    0.0000	    0.0000	    0.0000	    0.0000	
