GCD Test
Bias: 5000.000000
CV_34340_040_PSS_HM_XX_DIODEHALF
Date/Time: 7/6/2021 11:57:50 AM
Sensor Name: DIODEHALF
Type: P
Annealing Status: Not Irradiated
Environment: 20C
Tester: Andrew Kent

Time Delay per Ramp Step (s): 0.500

CV Time Delay per Measurement (s) :0.500

AC Voltage (V): 0.500

Current Number of measurements per voltage: 1.000

IV Time Delay per Measurement (s) :0.000


BiasVoltage	LCR_Cp_freq1000.0	LCR_Rp_freq1000.0	Temperature	Air_Temp	Humidity	Dewpoint	
   -5.0000	3.218E-11	1.453E+9	   19.9884	   21.7123	    6.5806	  -16.3246	
  -10.0000	2.432E-11	1.720E+9	   19.9833	   21.7173	    6.5791	  -16.3238	
  -15.0000	2.063E-11	1.815E+9	   19.9833	   21.7173	    6.5825	  -16.3175	
  -20.0000	1.834E-11	1.827E+9	   19.9833	   21.7191	    6.5797	  -16.3213	
  -25.0000	1.665E-11	1.978E+9	   19.9833	   21.6883	    6.5854	  -16.3335	
  -30.0000	1.538E-11	1.950E+9	   19.9910	   21.6883	    6.5955	  -16.3151	
  -35.0000	1.425E-11	1.879E+9	   19.9936	   21.6845	    6.5968	  -16.3156	
  -40.0000	1.321E-11	1.836E+9	   19.9987	   21.6725	    6.5946	  -16.3284	
  -45.0000	1.218E-11	1.895E+9	   20.0013	   21.6731	    6.5879	  -16.3400	
  -50.0000	1.145E-11	1.960E+9	   20.0039	   21.6790	    6.5778	  -16.3540	
  -55.0000	1.104E-11	2.003E+9	   20.0064	   21.6787	    6.5863	  -16.3387	
  -60.0000	1.074E-11	2.110E+9	   20.0064	   21.6742	    6.5911	  -16.3335	
  -65.0000	1.048E-11	1.941E+9	   20.0064	   21.6595	    6.5844	  -16.3562	
  -70.0000	1.023E-11	6.129E+8	   20.0039	   21.6617	    6.5844	  -16.3546	
  -75.0000	8.612E-12	9.100E+8	   19.9987	   21.6518	    6.5968	  -16.3394	
  -80.0000	8.480E-12	1.857E+9	   19.9936	   21.6497	    6.5889	  -16.3553	
  -85.0000	8.369E-12	1.820E+9	   19.9910	   21.6413	    6.5867	  -16.3654	
  -90.0000	8.270E-12	1.918E+9	   19.9858	   21.6463	    6.5908	  -16.3543	
  -95.0000	8.173E-12	1.902E+9	   19.9833	   21.6247	    6.5920	  -16.3678	
 -100.0000	8.086E-12	1.904E+9	   19.9833	   21.6309	    6.5930	  -16.3616	
 -105.0000	8.009E-12	1.903E+9	   19.9807	   21.6266	    6.5974	  -16.3568	
 -110.0000	7.935E-12	1.928E+9	   19.9807	   21.6229	    6.5965	  -16.3612	
 -115.0000	7.866E-12	1.990E+9	   19.9858	   21.6205	    6.6006	  -16.3554	
 -120.0000	7.800E-12	1.958E+9	   19.9858	   21.6219	    6.5923	  -16.3693	
 -125.0000	7.742E-12	2.002E+9	   19.9910	   21.6077	    6.5987	  -16.3682	
 -130.0000	7.681E-12	2.099E+9	   19.9961	   21.6114	    6.6053	  -16.3535	
 -135.0000	7.629E-12	2.107E+9	   19.9987	   21.5943	    6.6101	  -16.3574	
 -140.0000	7.575E-12	2.164E+9	   20.0039	   21.5898	    6.6063	  -16.3676	
 -145.0000	7.531E-12	2.137E+9	   20.0064	   21.5934	    6.5955	  -16.3844	
 -150.0000	7.482E-12	2.102E+9	   20.0039	   21.5948	    6.6101	  -16.3571	
 -155.0000	7.440E-12	2.133E+9	   20.0064	   21.5796	    6.6180	  -16.3539	
 -160.0000	7.399E-12	2.165E+9	   20.0039	   21.5708	    6.6189	  -16.3586	
 -165.0000	7.355E-12	2.116E+9	   20.0013	   21.5716	    6.6129	  -16.3688	
 -170.0000	7.317E-12	2.156E+9	   19.9987	   21.5655	    6.6246	  -16.3522	
 -175.0000	7.280E-12	2.220E+9	   19.9936	   21.5683	    6.6218	  -16.3553	
 -180.0000	7.243E-12	2.251E+9	   19.9910	   21.5575	    6.6252	  -16.3569	
 -185.0000	7.207E-12	2.208E+9	   19.9884	   21.5466	    6.6252	  -16.3649	
 -190.0000	7.171E-12	2.255E+9	   19.9833	   21.5524	    6.6249	  -16.3612	
 -195.0000	7.137E-12	2.063E+9	   19.9807	   21.5471	    6.6227	  -16.3691	
 -200.0000	7.105E-12	2.176E+9	   19.9807	   21.5471	    6.6256	  -16.3640	
 -205.0000	7.075E-12	2.297E+9	   19.9858	   21.5397	    6.6312	  -16.3591	
 -210.0000	7.045E-12	2.164E+9	   19.9858	   21.5370	    6.6363	  -16.3519	
 -215.0000	7.015E-12	2.335E+9	   19.9884	   21.5413	    6.6379	  -16.3459	
 -220.0000	6.993E-12	2.191E+9	   19.9910	   21.5297	    6.6382	  -16.3539	
 -225.0000	6.978E-12	2.217E+9	   19.9961	   21.5337	    6.6445	  -16.3396	
 -230.0000	6.968E-12	2.225E+9	   20.0013	   21.5154	    6.6458	  -16.3507	
 -235.0000	6.960E-12	2.313E+9	   20.0039	   21.5083	    6.6423	  -16.3621	
 -240.0000	6.951E-12	2.268E+9	   20.0064	   21.5086	    6.6496	  -16.3488	
 -245.0000	6.947E-12	2.238E+9	   20.0039	   21.5029	    6.6518	  -16.3490	
 -250.0000	6.938E-12	2.273E+9	   20.0039	   21.5056	    6.6486	  -16.3527	
 -255.0000	6.939E-12	2.268E+9	   20.0013	   21.4983	    6.6591	  -16.3393	
 -260.0000	6.934E-12	2.383E+9	   19.9961	   21.4899	    6.6512	  -16.3596	
 -265.0000	6.933E-12	2.244E+9	   19.9910	   21.4899	    6.6619	  -16.3403	
 -270.0000	6.931E-12	2.327E+9	   19.9884	   21.4902	    6.6493	  -16.3628	
 -275.0000	6.928E-12	2.314E+9	   19.9858	   21.4939	    6.6610	  -16.3391	
 -280.0000	6.926E-12	2.373E+9	   19.9833	   21.4833	    6.6578	  -16.3526	
 -285.0000	6.925E-12	2.273E+9	   19.9858	   21.4746	    6.6502	  -16.3726	
 -290.0000	6.921E-12	2.317E+9	   19.9858	   21.4812	    6.6578	  -16.3541	
 -295.0000	6.920E-12	2.187E+9	   19.9884	   21.4627	    6.6569	  -16.3693	
 -300.0000	6.920E-12	2.366E+9	   19.9884	   21.4627	    6.6610	  -16.3693	
 -305.0000	6.917E-12	2.249E+9	   19.9910	   21.4539	    6.6629	  -16.3650	
 -310.0000	6.918E-12	2.275E+9	   19.9961	   21.4569	    6.6657	  -16.3577	
 -315.0000	6.920E-12	2.341E+9	   19.9987	   21.4506	    6.6664	  -16.3611	
 -320.0000	6.914E-12	2.391E+9	   20.0039	   21.4499	    6.6660	  -16.3622	
 -325.0000	6.916E-12	2.306E+9	   20.0064	   21.4390	    6.6758	  -16.3526	
 -330.0000	6.914E-12	2.241E+9	   20.0039	   21.4401	    6.6736	  -16.3558	
 -335.0000	6.914E-12	2.281E+9	   20.0039	   21.4401	    6.6736	  -16.3558	
 -340.0000	6.914E-12	2.327E+9	   20.0013	   21.4252	    6.6705	  -16.3723	
 -345.0000	6.911E-12	2.418E+9	   20.0013	   21.4257	    6.6708	  -16.3714	
 -350.0000	6.912E-12	2.298E+9	   19.9987	   21.4244	    6.6695	  -16.3746	
 -355.0000	6.910E-12	2.364E+9	   19.9910	   21.4244	    6.6724	  -16.3695	
 -360.0000	6.909E-12	2.381E+9	   19.9884	   21.4197	    6.6717	  -16.3741	
 -365.0000	6.910E-12	2.296E+9	   19.9807	   21.4107	    6.6720	  -16.3801	
 -370.0000	6.908E-12	2.277E+9	   19.9807	   21.4019	    6.6698	  -16.3905	
 -375.0000	6.909E-12	2.425E+9	   19.9807	   21.4036	    6.6768	  -16.3768	
 -380.0000	6.910E-12	2.367E+9	   19.9807	   21.3944	    6.6698	  -16.3960	
 -385.0000	6.906E-12	2.333E+9	   19.9833	   21.3970	    6.6796	  -16.3766	
 -390.0000	6.905E-12	2.382E+9	   19.9884	   21.3899	    6.6847	  -16.3727	
 -395.0000	6.907E-12	2.426E+9	   19.9936	   21.3907	    6.6765	  -16.3868	
 -400.0000	6.908E-12	2.246E+9	   20.0039	   21.3812	    6.6809	  -16.3858	
 -410.0000	6.908E-12	2.343E+9	   20.0090	   21.3915	    6.6809	  -16.3783	
 -420.0000	6.906E-12	2.362E+9	   20.0090	   21.3668	    6.6803	  -16.3975	
 -430.0000	6.905E-12	2.370E+9	   20.0116	   21.3668	    6.6856	  -16.3879	
 -440.0000	6.906E-12	2.342E+9	   20.0116	   21.3668	    6.6856	  -16.3879	
 -450.0000	6.905E-12	2.315E+9	   20.0064	   21.3581	    6.6866	  -16.3926	
 -460.0000	6.906E-12	2.360E+9	   20.0039	   21.3625	    6.6837	  -16.3944	
 -470.0000	6.907E-12	2.420E+9	   19.9936	   21.3490	    6.6844	  -16.4032	
 -480.0000	6.904E-12	2.424E+9	   19.9858	   21.3497	    6.6961	  -16.3818	
 -490.0000	6.904E-12	2.404E+9	   19.9807	   21.3378	    6.6875	  -16.4057	
 -500.0000	6.900E-12	2.284E+9	   19.9781	   21.3430	    6.6910	  -16.3957	
 -510.0000	6.901E-12	2.358E+9	   19.9755	   21.3313	    6.6888	  -16.4082	
 -520.0000	6.901E-12	2.359E+9	   19.9755	   21.3313	    6.6888	  -16.4082	
 -530.0000	6.897E-12	2.366E+9	   19.9781	   21.3306	    6.6850	  -16.4155	
 -540.0000	6.901E-12	2.385E+9	   19.9833	   21.3253	    6.6853	  -16.4188	
 -550.0000	6.898E-12	2.286E+9	   19.9884	   21.3208	    6.6964	  -16.4024	
 -560.0000	6.899E-12	2.372E+9	   19.9910	   21.3225	    6.6891	  -16.4140	
 -570.0000	6.899E-12	2.302E+9	   20.0013	   21.3212	    6.6996	  -16.3964	
 -580.0000	6.900E-12	2.408E+9	   20.0142	   21.3144	    6.6948	  -16.4098	
 -590.0000	6.900E-12	2.332E+9	   20.0193	   21.3055	    6.6910	  -16.4232	
 -600.0000	6.899E-12	2.216E+9	   20.0193	   21.3109	    6.6926	  -16.4163	
