34252_001_PSS_HM_XX_IrradSensor
Date/Time: 4/23/2021 2:53:26 PM
Sensor Name: 34252_001_PSS_HM_XX_IrradSensor
Type: P
Annealing Status: Not Irradiated
Environment: RT
Tester: Eric Spencer
Notes: 

Time Delay per Ramp Step (s): 0.500

CV Time Delay per Measurement (s) :0.500

AC Voltage (V): 0.500

Current Number of measurements per voltage: 4.000

IV Time Delay per Measurement (s) :0.500


BiasVoltage	LCR_Cp_freq1000.0	LCR_G_freq1000.0	Temperature	Air_Temp	Humidity	Dewpoint	
   -5.0000	4.816E-10	6.353E-7	   27.8198	   26.4613	    3.4788	    0.0000	
  -10.0000	3.200E-10	1.166E-7	   27.8198	   26.4613	    3.4788	    0.0000	
  -15.0000	2.583E-10	8.153E-8	   27.8198	   26.4613	    3.4788	    0.0000	
  -20.0000	2.216E-10	6.017E-8	   27.8198	   26.4613	    3.4788	    0.0000	
  -25.0000	1.948E-10	6.017E-8	   27.8198	   26.4613	    3.4788	    0.0000	
  -30.0000	1.782E-10	5.435E-8	   27.8198	   26.4613	    3.4788	    0.0000	
  -35.0000	1.635E-10	4.759E-8	   27.8198	   26.4613	    3.4788	    0.0000	
  -40.0000	1.518E-10	3.966E-8	   27.8198	   26.4613	    3.4788	    0.0000	
  -45.0000	1.416E-10	4.026E-8	   27.8198	   26.4613	    3.4788	    0.0000	
  -50.0000	1.326E-10	3.217E-8	   27.8198	   26.4613	    3.4788	    0.0000	
  -55.0000	1.265E-10	3.748E-8	   27.8198	   26.4613	    3.4788	    0.0000	
  -60.0000	1.211E-10	3.156E-8	   27.8198	   26.4613	    3.4788	    0.0000	
  -65.0000	1.171E-10	3.640E-8	   27.8198	   26.4613	    3.4788	    0.0000	
  -70.0000	1.125E-10	2.960E-8	   27.8198	   26.4613	    3.4788	    0.0000	
  -75.0000	1.084E-10	3.833E-8	   27.8198	   26.4613	    3.4788	    0.0000	
  -80.0000	1.013E-10	4.263E-8	   27.8198	   26.4613	    3.4788	    0.0000	
  -85.0000	9.800E-11	2.773E-8	   27.8198	   26.4613	    3.4788	    0.0000	
  -90.0000	9.485E-11	2.507E-8	   27.8198	   26.4613	    3.4788	    0.0000	
  -95.0000	9.303E-11	2.583E-8	   27.8198	   26.4613	    3.4788	    0.0000	
 -100.0000	9.107E-11	2.818E-8	   27.8198	   26.4613	    3.4788	    0.0000	
 -105.0000	8.843E-11	3.035E-8	   27.8198	   26.4613	    3.4788	    0.0000	
 -110.0000	8.626E-11	2.621E-8	   27.8198	   26.4613	    3.4788	    0.0000	
 -115.0000	8.484E-11	2.488E-8	   27.8198	   26.4613	    3.4788	    0.0000	
 -120.0000	8.348E-11	2.917E-8	   27.8198	   26.4613	    3.4788	    0.0000	
 -125.0000	8.223E-11	2.358E-8	   27.8198	   26.4613	    3.4788	    0.0000	
 -130.0000	7.962E-11	2.275E-8	   27.8198	   26.4613	    3.4788	    0.0000	
 -135.0000	7.880E-11	2.973E-8	   27.8198	   26.4613	    3.4788	    0.0000	
 -140.0000	7.781E-11	2.281E-8	   27.8198	   26.4613	    3.4788	    0.0000	
 -145.0000	7.643E-11	2.642E-8	   27.8198	   26.4613	    3.4788	    0.0000	
 -150.0000	7.525E-11	2.741E-8	   27.8198	   26.4613	    3.4788	    0.0000	
 -155.0000	7.362E-11	2.784E-8	   27.8198	   26.4613	    3.4788	    0.0000	
 -160.0000	7.239E-11	2.577E-8	   27.8198	   26.4613	    3.4788	    0.0000	
 -165.0000	7.078E-11	2.127E-8	   27.8198	   26.4613	    3.4788	    0.0000	
 -170.0000	6.998E-11	2.025E-8	   27.8198	   26.4613	    3.4788	    0.0000	
 -175.0000	7.012E-11	1.959E-8	   27.8198	   26.4613	    3.4788	    0.0000	
 -180.0000	6.988E-11	1.881E-8	   27.8198	   26.4613	    3.4788	    0.0000	
 -185.0000	6.768E-11	2.530E-8	   27.8198	   26.4613	    3.4788	    0.0000	
 -190.0000	6.630E-11	2.624E-8	   27.8198	   26.4613	    3.4788	    0.0000	
 -195.0000	6.613E-11	2.450E-8	   27.8198	   26.4613	    3.4788	    0.0000	
 -200.0000	6.463E-11	1.929E-8	   27.8198	   26.4613	    3.4788	    0.0000	
 -205.0000	6.381E-11	1.573E-8	   27.8198	   26.4613	    3.4788	    0.0000	
 -210.0000	6.289E-11	2.496E-8	   27.8198	   26.4613	    3.4788	    0.0000	
 -215.0000	6.430E-11	1.233E-8	   27.8198	   26.4613	    3.4788	    0.0000	
 -220.0000	6.202E-11	2.310E-8	   27.8198	   26.4613	    3.4788	    0.0000	
 -225.0000	6.141E-11	1.570E-8	   27.8198	   26.4613	    3.4788	    0.0000	
 -230.0000	6.105E-11	1.979E-8	   27.8198	   26.4613	    3.4788	    0.0000	
 -235.0000	6.089E-11	2.248E-8	   27.8198	   26.4613	    3.4788	    0.0000	
 -240.0000	5.934E-11	2.129E-8	   27.8198	   26.4613	    3.4788	    0.0000	
 -245.0000	5.907E-11	1.753E-8	   27.8198	   26.4613	    3.4788	    0.0000	
 -250.0000	5.808E-11	1.719E-8	   27.8198	   26.4613	    3.4788	    0.0000	
 -255.0000	5.824E-11	2.521E-8	   27.8198	   26.4613	    3.4788	    0.0000	
 -260.0000	5.697E-11	1.829E-8	   27.8198	   26.4613	    3.4788	    0.0000	
 -265.0000	5.674E-11	1.785E-8	   27.8198	   26.4613	    3.4788	    0.0000	
 -270.0000	5.799E-11	1.709E-8	   27.8198	   26.4613	    3.4788	    0.0000	
 -275.0000	5.750E-11	1.913E-8	   27.8198	   26.4613	    3.4788	    0.0000	
 -280.0000	5.603E-11	1.811E-8	   27.8198	   26.4613	    3.4788	    0.0000	
 -285.0000	5.590E-11	1.784E-8	   27.8198	   26.4613	    3.4788	    0.0000	
 -290.0000	5.538E-11	2.306E-8	   27.8198	   26.4613	    3.4788	    0.0000	
 -295.0000	5.686E-11	1.498E-8	   27.8198	   26.4613	    3.4788	    0.0000	
 -300.0000	5.604E-11	2.343E-8	   27.8198	   26.4613	    3.4788	    0.0000	
 -305.0000	5.652E-11	1.274E-8	   27.8198	   26.4613	    3.4788	    0.0000	
 -310.0000	5.605E-11	1.776E-8	   27.8198	   26.4613	    3.4788	    0.0000	
 -315.0000	5.655E-11	1.384E-8	   27.8198	   26.4613	    3.4788	    0.0000	
 -320.0000	5.443E-11	1.632E-8	   27.8198	   26.4613	    3.4788	    0.0000	
 -325.0000	5.592E-11	1.377E-8	   27.8198	   26.4613	    3.4788	    0.0000	
 -330.0000	5.474E-11	1.746E-8	   27.8198	   26.4613	    3.4788	    0.0000	
 -335.0000	5.502E-11	1.770E-8	   27.8198	   26.4613	    3.4788	    0.0000	
 -340.0000	5.483E-11	2.451E-8	   27.8198	   26.4613	    3.4788	    0.0000	
 -345.0000	5.588E-11	1.393E-8	   27.8198	   26.4613	    3.4788	    0.0000	
 -350.0000	5.523E-11	1.963E-8	   27.8198	   26.4613	    3.4788	    0.0000	
 -355.0000	5.536E-11	2.107E-8	   27.8198	   26.4613	    3.4788	    0.0000	
 -360.0000	5.518E-11	2.107E-8	   27.8198	   26.4613	    3.4788	    0.0000	
 -365.0000	5.552E-11	1.605E-8	   27.8198	   26.4613	    3.4788	    0.0000	
 -370.0000	5.626E-11	1.367E-8	   27.8198	   26.4613	    3.4788	    0.0000	
 -375.0000	5.191E-11	1.794E-8	   27.8198	   26.4613	    3.4788	    0.0000	
 -380.0000	5.487E-11	2.221E-8	   27.8198	   26.4613	    3.4788	    0.0000	
 -385.0000	5.463E-11	2.678E-8	   27.8198	   26.4613	    3.4788	    0.0000	
 -390.0000	5.510E-11	1.257E-8	   27.8198	   26.4613	    3.4788	    0.0000	
 -395.0000	5.511E-11	1.932E-8	   27.8198	   26.4613	    3.4788	    0.0000	
 -400.0000	5.438E-11	1.197E-8	   27.8198	   26.4613	    3.4788	    0.0000	
 -410.0000	5.463E-11	1.914E-8	   27.8198	   26.4613	    3.4788	    0.0000	
 -420.0000	5.476E-11	1.596E-8	   27.8198	   26.4613	    3.4788	    0.0000	
 -430.0000	5.529E-11	1.785E-8	   27.8198	   26.4613	    3.4788	    0.0000	
 -440.0000	5.439E-11	1.738E-8	   27.8198	   26.4613	    3.4788	    0.0000	
 -450.0000	5.257E-11	3.122E-8	   27.8198	   26.4613	    3.4788	    0.0000	
 -460.0000	5.502E-11	1.991E-8	   27.8198	   26.4613	    3.4788	    0.0000	
 -470.0000	5.391E-11	1.819E-8	   27.8198	   26.4613	    3.4788	    0.0000	
 -480.0000	5.551E-11	1.917E-8	   27.8198	   26.4613	    3.4788	    0.0000	
 -490.0000	5.548E-11	1.980E-8	   27.8198	   26.4613	    3.4788	    0.0000	
 -500.0000	5.531E-11	1.704E-8	   27.8198	   26.4613	    3.4788	    0.0000	
 -510.0000	5.435E-11	1.918E-8	   27.8198	   26.4613	    3.4788	    0.0000	
 -520.0000	5.430E-11	2.051E-8	   27.8198	   26.4613	    3.4788	    0.0000	
 -530.0000	5.481E-11	2.087E-8	   27.8198	   26.4613	    3.4788	    0.0000	
 -540.0000	5.460E-11	1.802E-8	   27.8198	   26.4613	    3.4788	    0.0000	
 -550.0000	5.478E-11	1.546E-8	   27.8198	   26.4613	    3.4788	    0.0000	
 -560.0000	5.453E-11	2.286E-8	   27.8198	   26.4613	    3.4788	    0.0000	
 -570.0000	5.432E-11	1.937E-8	   27.8198	   26.4613	    3.4788	    0.0000	
 -580.0000	5.429E-11	1.865E-8	   27.8198	   26.4613	    3.4788	    0.0000	
 -590.0000	5.477E-11	2.005E-8	   27.8198	   26.4613	    3.4788	    0.0000	
 -600.0000	5.598E-11	2.001E-8	   27.8198	   26.4613	    3.4788	    0.0000	
