GCD Test
Bias: 5000.000000
IV_34254_014_PSS_HM_XX_DIODEQUARTER
Date/Time: 4/26/2021 12:25:41 PM
Sensor Name: DIODEQUARTER
Type: P
Annealing Status: Unirradiated
Environment: RT
Tester: Andrew Kent

Time Delay per Ramp Step (s): 0.500

CV Time Delay per Measurement (s) :0.500

AC Voltage (V): 0.500

Current Number of measurements per voltage: 1.000

IV Time Delay per Measurement (s) :0.000


BiasVoltage	Bias Current_Avg	Bias Current_0	Temperature	Air_Temp	Humidity	Dewpoint	
   -5.0000	-1.273306E-10	-1.273306E-10	   22.9600	   23.3448	   19.7084	   -1.0669	
  -10.0000	-1.288271E-10	-1.288271E-10	   22.9600	   23.3448	   19.7084	   -1.0669	
  -15.0000	-1.301552E-10	-1.301552E-10	   22.9600	   23.3412	   19.6948	   -1.0793	
  -20.0000	-1.316372E-10	-1.316372E-10	   22.9600	   23.3412	   19.6948	   -1.0793	
  -25.0000	-1.331070E-10	-1.331070E-10	   22.9600	   23.3424	   19.6907	   -1.0812	
  -30.0000	-1.351353E-10	-1.351353E-10	   22.9600	   23.3424	   19.6907	   -1.0812	
  -35.0000	-1.364139E-10	-1.364139E-10	   22.9600	   23.3390	   19.6866	   -1.0868	
  -40.0000	-1.391345E-10	-1.391345E-10	   22.9600	   23.3390	   19.6866	   -1.0868	
  -45.0000	-1.424409E-10	-1.424409E-10	   22.9574	   23.3315	   19.6863	   -1.0932	
  -50.0000	-1.459042E-10	-1.459042E-10	   22.9574	   23.3315	   19.6863	   -1.0932	
  -55.0000	-1.501868E-10	-1.501868E-10	   22.9600	   23.3322	   19.6872	   -1.0920	
  -60.0000	-1.539269E-10	-1.539269E-10	   22.9600	   23.3322	   19.6872	   -1.0920	
  -65.0000	-1.561098E-10	-1.561098E-10	   22.9574	   23.3352	   19.6806	   -1.0941	
  -70.0000	-1.583551E-10	-1.583551E-10	   22.9600	   23.3326	   19.6891	   -1.0903	
  -75.0000	-1.595910E-10	-1.595910E-10	   22.9600	   23.3326	   19.6891	   -1.0903	
  -80.0000	-1.614211E-10	-1.614211E-10	   22.9600	   23.3326	   19.6891	   -1.0903	
  -85.0000	-1.623225E-10	-1.623225E-10	   22.9574	   23.3326	   19.6983	   -1.0840	
  -90.0000	-1.629017E-10	-1.629017E-10	   22.9574	   23.3329	   19.6898	   -1.0897	
  -95.0000	-1.626878E-10	-1.626878E-10	   22.9574	   23.3329	   19.6898	   -1.0897	
 -100.0000	-1.629571E-10	-1.629571E-10	   22.9574	   23.3329	   19.6977	   -1.0842	
 -105.0000	-1.635176E-10	-1.635176E-10	   22.9574	   23.3329	   19.6977	   -1.0842	
 -110.0000	-1.637827E-10	-1.637827E-10	   22.9600	   23.3326	   19.7024	   -1.0811	
 -115.0000	-1.637311E-10	-1.637311E-10	   22.9600	   23.3326	   19.7024	   -1.0811	
 -120.0000	-1.644591E-10	-1.644591E-10	   22.9574	   23.3313	   19.7062	   -1.0796	
 -125.0000	-1.643948E-10	-1.643948E-10	   22.9574	   23.3240	   19.7097	   -1.0832	
 -130.0000	-1.648330E-10	-1.648330E-10	   22.9574	   23.3240	   19.7097	   -1.0832	
 -135.0000	-1.644574E-10	-1.644574E-10	   22.9574	   23.3284	   19.7135	   -1.0769	
 -140.0000	-1.649375E-10	-1.649375E-10	   22.9574	   23.3284	   19.7135	   -1.0769	
 -145.0000	-1.652467E-10	-1.652467E-10	   22.9574	   23.3284	   19.7293	   -1.0661	
 -150.0000	-1.648821E-10	-1.648821E-10	   22.9574	   23.3284	   19.7293	   -1.0661	
 -155.0000	-1.658260E-10	-1.658260E-10	   22.9600	   23.3275	   19.7410	   -1.0587	
 -160.0000	-1.654127E-10	-1.654127E-10	   22.9574	   23.3247	   19.7293	   -1.0691	
 -165.0000	-1.659003E-10	-1.659003E-10	   22.9574	   23.3247	   19.7293	   -1.0691	
 -170.0000	-1.658837E-10	-1.658837E-10	   22.9600	   23.3234	   19.7331	   -1.0675	
 -175.0000	-1.658415E-10	-1.658415E-10	   22.9600	   23.3234	   19.7331	   -1.0675	
 -180.0000	-1.658238E-10	-1.658238E-10	   22.9574	   23.3218	   19.7312	   -1.0702	
 -185.0000	-1.665435E-10	-1.665435E-10	   22.9574	   23.3218	   19.7312	   -1.0702	
 -190.0000	-1.662628E-10	-1.662628E-10	   22.9574	   23.3252	   19.7457	   -1.0573	
 -195.0000	-1.666229E-10	-1.666229E-10	   22.9574	   23.3272	   19.7483	   -1.0539	
 -200.0000	-1.666066E-10	-1.666066E-10	   22.9574	   23.3272	   19.7483	   -1.0539	
 -205.0000	-1.669183E-10	-1.669183E-10	   22.9574	   23.3272	   19.7577	   -1.0474	
 -210.0000	-1.672780E-10	-1.672780E-10	   22.9574	   23.3254	   19.7559	   -1.0502	
 -215.0000	-1.672699E-10	-1.672699E-10	   22.9574	   23.3254	   19.7559	   -1.0502	
 -220.0000	-1.673082E-10	-1.673082E-10	   22.9574	   23.3254	   19.7546	   -1.0511	
 -225.0000	-1.675207E-10	-1.675207E-10	   22.9574	   23.3254	   19.7546	   -1.0511	
 -230.0000	-1.677720E-10	-1.677720E-10	   22.9600	   23.3216	   19.7682	   -1.0448	
 -235.0000	-1.682179E-10	-1.682179E-10	   22.9600	   23.3216	   19.7682	   -1.0448	
 -240.0000	-1.677693E-10	-1.677693E-10	   22.9600	   23.3187	   19.7641	   -1.0500	
 -245.0000	-1.683133E-10	-1.683133E-10	   22.9600	   23.3187	   19.7641	   -1.0500	
 -250.0000	-1.683317E-10	-1.683317E-10	   22.9600	   23.3247	   19.7799	   -1.0341	
 -255.0000	-1.685904E-10	-1.685904E-10	   22.9574	   23.3256	   19.7808	   -1.0327	
 -260.0000	-1.689458E-10	-1.689458E-10	   22.9574	   23.3256	   19.7808	   -1.0327	
 -265.0000	-1.691253E-10	-1.691253E-10	   22.9574	   23.3219	   19.7872	   -1.0314	
 -270.0000	-1.690870E-10	-1.690870E-10	   22.9574	   23.3219	   19.7872	   -1.0314	
 -275.0000	-1.693416E-10	-1.693416E-10	   22.9600	   23.3245	   19.7919	   -1.0261	
 -280.0000	-1.693597E-10	-1.693597E-10	   22.9574	   23.3210	   19.7903	   -1.0300	
 -285.0000	-1.689517E-10	-1.689517E-10	   22.9574	   23.3210	   19.7903	   -1.0300	
 -290.0000	-1.696026E-10	-1.696026E-10	   22.9574	   23.3192	   19.7916	   -1.0306	
 -295.0000	-1.698539E-10	-1.698539E-10	   22.9574	   23.3192	   19.7916	   -1.0306	
 -300.0000	-1.703914E-10	-1.703914E-10	   22.9600	   23.3236	   19.8147	   -1.0111	
 -305.0000	-1.699910E-10	-1.699910E-10	   22.9600	   23.3236	   19.8147	   -1.0111	
 -310.0000	-1.708355E-10	-1.708355E-10	   22.9574	   23.3241	   19.8118	   -1.0126	
 -315.0000	-1.706364E-10	-1.706364E-10	   22.9574	   23.3241	   19.8118	   -1.0126	
 -320.0000	-1.706423E-10	-1.706423E-10	   22.9600	   23.3212	   19.8267	   -1.0048	
 -325.0000	-1.707904E-10	-1.707904E-10	   22.9600	   23.3212	   19.8267	   -1.0048	
 -330.0000	-1.703936E-10	-1.703936E-10	   22.9574	   23.3226	   19.8254	   -1.0045	
 -335.0000	-1.710322E-10	-1.710322E-10	   22.9574	   23.3226	   19.8254	   -1.0045	
 -340.0000	-1.711335E-10	-1.711335E-10	   22.9574	   23.3245	   19.8286	   -1.0007	
 -345.0000	-1.711234E-10	-1.711234E-10	   22.9600	   23.3220	   19.8305	   -1.0016	
 -350.0000	-1.713748E-10	-1.713748E-10	   22.9600	   23.3220	   19.8305	   -1.0016	
 -355.0000	-1.715297E-10	-1.715297E-10	   22.9574	   23.3197	   19.8362	   -0.9995	
 -360.0000	-1.717762E-10	-1.717762E-10	   22.9574	   23.3197	   19.8362	   -0.9995	
 -365.0000	-1.719239E-10	-1.719239E-10	   22.9574	   23.3186	   19.8311	   -1.0039	
 -370.0000	-1.721795E-10	-1.721795E-10	   22.9574	   23.3188	   19.8270	   -1.0066	
 -375.0000	-1.726238E-10	-1.726238E-10	   22.9574	   23.3188	   19.8270	   -1.0066	
 -380.0000	-1.725697E-10	-1.725697E-10	   22.9574	   23.3203	   19.8343	   -1.0003	
 -385.0000	-1.720585E-10	-1.720585E-10	   22.9574	   23.3203	   19.8343	   -1.0003	
 -390.0000	-1.728678E-10	-1.728678E-10	   22.9574	   23.3163	   19.8419	   -0.9984	
 -395.0000	-1.726828E-10	-1.726828E-10	   22.9574	   23.3171	   19.8409	   -0.9984	
 -400.0000	-1.724962E-10	-1.724962E-10	   22.9574	   23.3171	   19.8409	   -0.9984	
 -410.0000	-1.727618E-10	-1.727618E-10	   22.9574	   23.3171	   19.8368	   -1.0012	
 -420.0000	-1.727352E-10	-1.727352E-10	   22.9574	   23.3171	   19.8368	   -1.0012	
 -430.0000	-1.729345E-10	-1.729345E-10	   22.9574	   23.3221	   19.8409	   -0.9943	
 -440.0000	-1.736206E-10	-1.736206E-10	   22.9574	   23.3221	   19.8409	   -0.9943	
 -450.0000	-1.733201E-10	-1.733201E-10	   22.9574	   23.3153	   19.8466	   -0.9960	
 -460.0000	-1.735071E-10	-1.735071E-10	   22.9600	   23.3204	   19.8397	   -0.9965	
 -470.0000	-1.737654E-10	-1.737654E-10	   22.9600	   23.3204	   19.8397	   -0.9965	
 -480.0000	-1.741959E-10	-1.741959E-10	   22.9600	   23.3204	   19.8365	   -0.9987	
 -490.0000	-1.742308E-10	-1.742308E-10	   22.9600	   23.3204	   19.8365	   -0.9987	
 -500.0000	-1.743955E-10	-1.743955E-10	   22.9574	   23.3136	   19.8302	   -1.0086	
 -510.0000	-1.745364E-10	-1.745364E-10	   22.9600	   23.3201	   19.8321	   -1.0020	
 -520.0000	-1.749873E-10	-1.749873E-10	   22.9600	   23.3201	   19.8321	   -1.0020	
 -530.0000	-1.749374E-10	-1.749374E-10	   22.9600	   23.3169	   19.8416	   -0.9981	
 -540.0000	-1.753580E-10	-1.753580E-10	   22.9600	   23.3169	   19.8416	   -0.9981	
 -550.0000	-1.756430E-10	-1.756430E-10	   22.9574	   23.3206	   19.8378	   -0.9977	
 -560.0000	-1.762951E-10	-1.762951E-10	   22.9574	   23.3187	   19.8450	   -0.9942	
 -570.0000	-1.764939E-10	-1.764939E-10	   22.9574	   23.3187	   19.8450	   -0.9942	
 -580.0000	-1.763355E-10	-1.763355E-10	   22.9600	   23.3244	   19.8289	   -1.0006	
 -590.0000	-1.774117E-10	-1.774117E-10	   22.9600	   23.3244	   19.8289	   -1.0006	
 -600.0000	-1.773308E-10	-1.773308E-10	   22.9574	   23.3176	   19.8422	   -0.9971	
 -610.0000	-1.767804E-10	-1.767804E-10	   22.9574	   23.3176	   19.8422	   -0.9971	
 -620.0000	-1.769784E-10	-1.769784E-10	   22.9600	   23.3230	   19.8292	   -1.0016	
 -630.0000	-1.772340E-10	-1.772340E-10	   22.9600	   23.3230	   19.8292	   -1.0016	
 -640.0000	-1.774673E-10	-1.774673E-10	   22.9574	   23.3216	   19.8264	   -1.0047	
 -650.0000	-1.776799E-10	-1.776799E-10	   22.9574	   23.3216	   19.8264	   -1.0047	
 -660.0000	-1.777844E-10	-1.777844E-10	   22.9600	   23.3213	   19.8305	   -1.0021	
 -670.0000	-1.783568E-10	-1.783568E-10	   22.9600	   23.3187	   19.8248	   -1.0081	
 -680.0000	-1.789235E-10	-1.789235E-10	   22.9600	   23.3187	   19.8248	   -1.0081	
 -690.0000	-1.794888E-10	-1.794888E-10	   22.9574	   23.3191	   19.8314	   -1.0033	
 -700.0000	-1.797627E-10	-1.797627E-10	   22.9574	   23.3191	   19.8314	   -1.0033	
 -710.0000	-1.797266E-10	-1.797266E-10	   22.9600	   23.3253	   19.8349	   -0.9958	
 -720.0000	-1.807584E-10	-1.807584E-10	   22.9574	   23.3238	   19.8188	   -1.0081	
 -730.0000	-1.802153E-10	-1.802153E-10	   22.9574	   23.3238	   19.8188	   -1.0081	
 -740.0000	-1.807265E-10	-1.807265E-10	   22.9600	   23.3240	   19.8273	   -1.0021	
 -750.0000	-1.814126E-10	-1.814126E-10	   22.9600	   23.3240	   19.8273	   -1.0021	
 -760.0000	-1.820447E-10	-1.820447E-10	   22.9600	   23.3252	   19.8318	   -0.9980	
 -770.0000	-1.822847E-10	-1.822847E-10	   22.9600	   23.3252	   19.8318	   -0.9980	
 -780.0000	-1.826076E-10	-1.826076E-10	   22.9574	   23.3250	   19.8314	   -0.9984	
 -790.0000	-1.828624E-10	-1.828624E-10	   22.9600	   23.3203	   19.8406	   -0.9959	
 -800.0000	-1.837528E-10	-1.837528E-10	   22.9600	   23.3203	   19.8406	   -0.9959	
 -810.0000	-1.847714E-10	-1.847714E-10	   22.9600	   23.3211	   19.8374	   -0.9975	
 -820.0000	-1.850403E-10	-1.850403E-10	   22.9600	   23.3211	   19.8374	   -0.9975	
 -830.0000	-1.853453E-10	-1.853453E-10	   22.9600	   23.3241	   19.8460	   -0.9892	
 -840.0000	-1.859803E-10	-1.859803E-10	   22.9600	   23.3203	   19.8542	   -0.9866	
 -850.0000	-1.873565E-10	-1.873565E-10	   22.9600	   23.3203	   19.8542	   -0.9866	
 -860.0000	-1.875129E-10	-1.875129E-10	   22.9600	   23.3203	   19.8381	   -0.9977	
 -870.0000	-1.887867E-10	-1.887867E-10	   22.9600	   23.3203	   19.8381	   -0.9977	
 -880.0000	-1.898910E-10	-1.898910E-10	   22.9600	   23.3234	   19.8523	   -0.9854	
 -890.0000	-1.903032E-10	-1.903032E-10	   22.9600	   23.3234	   19.8523	   -0.9854	
 -900.0000	-1.917655E-10	-1.917655E-10	   22.9600	   23.3254	   19.8469	   -0.9874	
 -910.0000	-1.930919E-10	-1.930919E-10	   22.9600	   23.3246	   19.8510	   -0.9852	
 -920.0000	-1.939597E-10	-1.939597E-10	   22.9600	   23.3246	   19.8510	   -0.9852	
 -930.0000	-1.953956E-10	-1.953956E-10	   22.9600	   23.3187	   19.8416	   -0.9967	
 -940.0000	-1.972201E-10	-1.972201E-10	   22.9600	   23.3187	   19.8416	   -0.9967	
 -950.0000	-1.988748E-10	-1.988748E-10	   22.9600	   23.3178	   19.8510	   -0.9909	
 -960.0000	-2.006499E-10	-2.006499E-10	   22.9600	   23.3178	   19.8510	   -0.9909	
 -970.0000	-2.026635E-10	-2.026635E-10	   22.9600	   23.3178	   19.8435	   -0.9961	
 -980.0000	-2.038968E-10	-2.038968E-10	   22.9600	   23.3224	   19.8548	   -0.9845	
 -990.0000	-2.060411E-10	-2.060411E-10	   22.9600	   23.3224	   19.8548	   -0.9845	
-1000.0000	-2.081706E-10	-2.081706E-10	   22.9600	   23.3211	   19.8457	   -0.9918	
