GCD Test
Bias: 5000.000000
IV_34341_038_PSS_HM_XX_DIODE
Date/Time: 4/28/2021 11:29:14 AM
Sensor Name: DIODE
Type: P
Annealing Status: Unirradiated
Environment: RT
Tester: Andrew Kent

Time Delay per Ramp Step (s): 0.500

CV Time Delay per Measurement (s) :0.500

AC Voltage (V): 0.500

Current Number of measurements per voltage: 1.000

IV Time Delay per Measurement (s) :0.000


BiasVoltage	Bias Current_Avg	Bias Current_0	Temperature	Air_Temp	Humidity	Dewpoint	
   -5.0000	-2.995251E-10	-2.995251E-10	   22.5221	   22.4739	    9.2603	  -11.5941	
  -10.0000	-3.034821E-10	-3.034821E-10	   22.5195	   22.4724	    8.9845	  -11.9710	
  -15.0000	-3.072668E-10	-3.072668E-10	   22.5195	   22.4724	    8.9845	  -11.9710	
  -20.0000	-3.117081E-10	-3.117081E-10	   22.5195	   22.4662	    8.7878	  -12.2501	
  -25.0000	-3.166199E-10	-3.166199E-10	   22.5169	   22.4713	    8.6989	  -12.3720	
  -30.0000	-3.228227E-10	-3.228227E-10	   22.5169	   22.4713	    8.6989	  -12.3720	
  -35.0000	-3.267843E-10	-3.267843E-10	   22.5195	   22.4719	    8.5642	  -12.5644	
  -40.0000	-3.328224E-10	-3.328224E-10	   22.5195	   22.4719	    8.5642	  -12.5644	
  -45.0000	-3.406001E-10	-3.406001E-10	   22.5195	   22.4746	    8.4383	  -12.7450	
  -50.0000	-3.502236E-10	-3.502236E-10	   22.5169	   22.4702	    8.3460	  -12.8838	
  -55.0000	-3.585558E-10	-3.585558E-10	   22.5169	   22.4702	    8.3460	  -12.8838	
  -60.0000	-3.650480E-10	-3.650480E-10	   22.5169	   22.4702	    8.2808	  -12.9803	
  -65.0000	-3.738403E-10	-3.738403E-10	   22.5169	   22.4702	    8.2808	  -12.9803	
  -70.0000	-3.816424E-10	-3.816424E-10	   22.5143	   22.4727	    8.1803	  -13.1286	
  -75.0000	-3.857021E-10	-3.857021E-10	   22.5143	   22.4727	    8.1803	  -13.1286	
  -80.0000	-3.882336E-10	-3.882336E-10	   22.5143	   22.4745	    8.0933	  -13.2585	
  -85.0000	-3.944464E-10	-3.944464E-10	   22.5143	   22.4726	    8.0354	  -13.3479	
  -90.0000	-3.994539E-10	-3.994539E-10	   22.5143	   22.4726	    8.0354	  -13.3479	
  -95.0000	-4.022338E-10	-4.022338E-10	   22.5143	   22.4744	    7.9652	  -13.4541	
 -100.0000	-4.037301E-10	-4.037301E-10	   22.5143	   22.4744	    7.9652	  -13.4541	
 -105.0000	-4.051211E-10	-4.051211E-10	   22.5143	   22.4729	    7.8874	  -13.5754	
 -110.0000	-4.060620E-10	-4.060620E-10	   22.5143	   22.4729	    7.8874	  -13.5754	
 -115.0000	-4.076333E-10	-4.076333E-10	   22.5117	   22.4718	    7.8267	  -13.6708	
 -120.0000	-4.084210E-10	-4.084210E-10	   22.5117	   22.4730	    7.7742	  -13.7521	
 -125.0000	-4.095306E-10	-4.095306E-10	   22.5117	   22.4730	    7.7742	  -13.7521	
 -130.0000	-4.100041E-10	-4.100041E-10	   22.5117	   22.4730	    7.7271	  -13.8263	
 -135.0000	-4.114607E-10	-4.114607E-10	   22.5117	   22.4730	    7.7271	  -13.8263	
 -140.0000	-4.123379E-10	-4.123379E-10	   22.5092	   22.4744	    7.6825	  -13.8959	
 -145.0000	-4.132549E-10	-4.132549E-10	   22.5092	   22.4744	    7.6825	  -13.8959	
 -150.0000	-4.129349E-10	-4.129349E-10	   22.5092	   22.4726	    7.6176	  -14.0006	
 -155.0000	-4.138326E-10	-4.138326E-10	   22.5092	   22.4726	    7.6176	  -14.0006	
 -160.0000	-4.153859E-10	-4.153859E-10	   22.5066	   22.4679	    7.5544	  -14.1057	
 -165.0000	-4.156077E-10	-4.156077E-10	   22.5066	   22.4679	    7.5544	  -14.1057	
 -170.0000	-4.164057E-10	-4.164057E-10	   22.5092	   22.4684	    7.5013	  -14.1912	
 -175.0000	-4.171778E-10	-4.171778E-10	   22.5092	   22.4684	    7.5013	  -14.1912	
 -180.0000	-4.177557E-10	-4.177557E-10	   22.5066	   22.4695	    7.4744	  -14.2341	
 -185.0000	-4.191103E-10	-4.191103E-10	   22.5066	   22.4695	    7.4744	  -14.2341	
 -190.0000	-4.209090E-10	-4.209090E-10	   22.5066	   22.4685	    7.4380	  -14.2941	
 -195.0000	-4.208022E-10	-4.208022E-10	   22.5066	   22.4685	    7.4380	  -14.2941	
 -200.0000	-4.222554E-10	-4.222554E-10	   22.5066	   22.4738	    7.3931	  -14.3638	
 -205.0000	-4.238070E-10	-4.238070E-10	   22.5066	   22.4711	    7.3700	  -14.4038	
 -210.0000	-4.253966E-10	-4.253966E-10	   22.5066	   22.4711	    7.3700	  -14.4038	
 -215.0000	-4.256040E-10	-4.256040E-10	   22.5040	   22.4676	    7.3466	  -14.4450	
 -220.0000	-4.268891E-10	-4.268891E-10	   22.5040	   22.4676	    7.3466	  -14.4450	
 -225.0000	-4.278982E-10	-4.278982E-10	   22.5040	   22.4707	    7.3052	  -14.5114	
 -230.0000	-4.285337E-10	-4.285337E-10	   22.5066	   22.4663	    7.3036	  -14.5173	
 -235.0000	-4.294707E-10	-4.294707E-10	   22.5066	   22.4663	    7.3036	  -14.5173	
 -240.0000	-4.302458E-10	-4.302458E-10	   22.5040	   22.4687	    7.2739	  -14.5649	
 -245.0000	-4.318650E-10	-4.318650E-10	   22.5040	   22.4682	    7.2543	  -14.5980	
 -250.0000	-4.325370E-10	-4.325370E-10	   22.5040	   22.4682	    7.2543	  -14.5980	
 -255.0000	-4.326748E-10	-4.326748E-10	   22.5040	   22.4697	    7.2378	  -14.6245	
 -260.0000	-4.334073E-10	-4.334073E-10	   22.5040	   22.4697	    7.2378	  -14.6245	
 -265.0000	-4.341181E-10	-4.341181E-10	   22.5014	   22.4717	    7.2059	  -14.6766	
 -270.0000	-4.345530E-10	-4.345530E-10	   22.5014	   22.4717	    7.2059	  -14.6766	
 -275.0000	-4.353508E-10	-4.353508E-10	   22.5014	   22.4686	    7.1954	  -14.6965	
 -280.0000	-4.358683E-10	-4.358683E-10	   22.5014	   22.4692	    7.1686	  -14.7413	
 -285.0000	-4.365217E-10	-4.365217E-10	   22.5014	   22.4692	    7.1686	  -14.7413	
 -290.0000	-4.373928E-10	-4.373928E-10	   22.5014	   22.4692	    7.1591	  -14.7573	
 -295.0000	-4.371964E-10	-4.371964E-10	   22.4989	   22.4676	    7.1471	  -14.7788	
 -300.0000	-4.384016E-10	-4.384016E-10	   22.4989	   22.4676	    7.1471	  -14.7788	
 -305.0000	-4.380598E-10	-4.380598E-10	   22.4989	   22.4676	    7.1316	  -14.8051	
 -310.0000	-4.388828E-10	-4.388828E-10	   22.4989	   22.4676	    7.1316	  -14.8051	
 -315.0000	-4.391806E-10	-4.391806E-10	   22.4989	   22.4667	    7.1161	  -14.8321	
 -320.0000	-4.395324E-10	-4.395324E-10	   22.4989	   22.4667	    7.1161	  -14.8321	
 -325.0000	-4.406565E-10	-4.406565E-10	   22.4963	   22.4691	    7.0968	  -14.8632	
 -330.0000	-4.410257E-10	-4.410257E-10	   22.4963	   22.4688	    7.0737	  -14.9028	
 -335.0000	-4.412336E-10	-4.412336E-10	   22.4963	   22.4688	    7.0737	  -14.9028	
 -340.0000	-4.420643E-10	-4.420643E-10	   22.4963	   22.4613	    7.0737	  -14.9083	
 -345.0000	-4.419252E-10	-4.419252E-10	   22.4963	   22.4613	    7.0737	  -14.9083	
 -350.0000	-4.425409E-10	-4.425409E-10	   22.4963	   22.4615	    7.0484	  -14.9515	
 -355.0000	-4.430001E-10	-4.430001E-10	   22.4963	   22.4615	    7.0484	  -14.9515	
 -360.0000	-4.434733E-10	-4.434733E-10	   22.4963	   22.4608	    7.0402	  -14.9661	
 -365.0000	-4.437803E-10	-4.437803E-10	   22.4963	   22.4624	    7.0171	  -15.0047	
 -370.0000	-4.450692E-10	-4.450692E-10	   22.4963	   22.4624	    7.0171	  -15.0047	
 -375.0000	-4.440727E-10	-4.440727E-10	   22.4937	   22.4650	    7.0228	  -14.9930	
 -380.0000	-4.457493E-10	-4.457493E-10	   22.4937	   22.4650	    7.0228	  -14.9930	
 -385.0000	-4.454442E-10	-4.454442E-10	   22.4963	   22.4683	    7.0060	  -15.0194	
 -390.0000	-4.459310E-10	-4.459310E-10	   22.4937	   22.4664	    6.9823	  -15.0617	
 -395.0000	-4.467889E-10	-4.467889E-10	   22.4937	   22.4664	    6.9823	  -15.0617	
 -400.0000	-4.470294E-10	-4.470294E-10	   22.4937	   22.4639	    6.9842	  -15.0603	
 -410.0000	-4.480747E-10	-4.480747E-10	   22.4937	   22.4639	    6.9842	  -15.0603	
 -420.0000	-4.489701E-10	-4.489701E-10	   22.4911	   22.4638	    6.9696	  -15.0855	
 -430.0000	-4.490776E-10	-4.490776E-10	   22.4911	   22.4603	    6.9560	  -15.1116	
 -440.0000	-4.504814E-10	-4.504814E-10	   22.4911	   22.4603	    6.9560	  -15.1116	
 -450.0000	-4.513001E-10	-4.513001E-10	   22.4911	   22.4649	    6.9507	  -15.1176	
 -460.0000	-4.522212E-10	-4.522212E-10	   22.4911	   22.4649	    6.9507	  -15.1176	
 -470.0000	-4.518000E-10	-4.518000E-10	   22.4911	   22.4665	    6.9298	  -15.1528	
 -480.0000	-4.529041E-10	-4.529041E-10	   22.4911	   22.4665	    6.9298	  -15.1528	
 -490.0000	-4.536960E-10	-4.536960E-10	   22.4911	   22.4612	    6.9162	  -15.1803	
 -500.0000	-4.543556E-10	-4.543556E-10	   22.4911	   22.4614	    6.9051	  -15.1995	
 -510.0000	-4.552466E-10	-4.552466E-10	   22.4911	   22.4614	    6.9051	  -15.1995	
 -520.0000	-4.561364E-10	-4.561364E-10	   22.4886	   22.4612	    6.9010	  -15.2068	
 -530.0000	-4.573234E-10	-4.573234E-10	   22.4886	   22.4612	    6.9010	  -15.2068	
 -540.0000	-4.578586E-10	-4.578586E-10	   22.4886	   22.4649	    6.8912	  -15.2212	
 -550.0000	-4.580453E-10	-4.580453E-10	   22.4886	   22.4649	    6.8912	  -15.2212	
 -560.0000	-4.586356E-10	-4.586356E-10	   22.4886	   22.4623	    6.8741	  -15.2531	
 -570.0000	-4.597482E-10	-4.597482E-10	   22.4886	   22.4564	    6.8827	  -15.2424	
 -580.0000	-4.609008E-10	-4.609008E-10	   22.4886	   22.4564	    6.8827	  -15.2424	
 -590.0000	-4.609436E-10	-4.609436E-10	   22.4886	   22.4630	    6.8656	  -15.2675	
 -600.0000	-4.618515E-10	-4.618515E-10	   22.4886	   22.4630	    6.8656	  -15.2675	
 -610.0000	-4.626917E-10	-4.626917E-10	   22.4860	   22.4594	    6.8510	  -15.2957	
 -620.0000	-4.628818E-10	-4.628818E-10	   22.4860	   22.4609	    6.8447	  -15.3057	
 -630.0000	-4.645078E-10	-4.645078E-10	   22.4860	   22.4609	    6.8447	  -15.3057	
 -640.0000	-4.646035E-10	-4.646035E-10	   22.4860	   22.4609	    6.8409	  -15.3124	
 -650.0000	-4.649183E-10	-4.649183E-10	   22.4860	   22.4609	    6.8409	  -15.3124	
 -660.0000	-4.660730E-10	-4.660730E-10	   22.4834	   22.4594	    6.8387	  -15.3174	
 -670.0000	-4.669133E-10	-4.669133E-10	   22.4834	   22.4594	    6.8387	  -15.3174	
 -680.0000	-4.674078E-10	-4.674078E-10	   22.4860	   22.4593	    6.8422	  -15.3114	
 -690.0000	-4.682679E-10	-4.682679E-10	   22.4860	   22.4593	    6.8229	  -15.3454	
 -700.0000	-4.693786E-10	-4.693786E-10	   22.4860	   22.4593	    6.8229	  -15.3454	
 -710.0000	-4.701812E-10	-4.701812E-10	   22.4834	   22.4615	    6.8178	  -15.3527	
 -720.0000	-4.716420E-10	-4.716420E-10	   22.4834	   22.4615	    6.8178	  -15.3527	
 -730.0000	-4.730566E-10	-4.730566E-10	   22.4834	   22.4624	    6.8083	  -15.3688	
 -740.0000	-4.734738E-10	-4.734738E-10	   22.4834	   22.4624	    6.8083	  -15.3688	
 -750.0000	-4.750523E-10	-4.750523E-10	   22.4834	   22.4601	    6.8121	  -15.3638	
 -760.0000	-4.755631E-10	-4.755631E-10	   22.4834	   22.4594	    6.8030	  -15.3805	
 -770.0000	-4.773079E-10	-4.773079E-10	   22.4834	   22.4594	    6.8030	  -15.3805	
 -780.0000	-4.782583E-10	-4.782583E-10	   22.4834	   22.4546	    6.7925	  -15.4025	
 -790.0000	-4.796397E-10	-4.796397E-10	   22.4834	   22.4546	    6.7925	  -15.4025	
 -800.0000	-4.815840E-10	-4.815840E-10	   22.4834	   22.4588	    6.7856	  -15.4118	
 -810.0000	-4.815993E-10	-4.815993E-10	   22.4834	   22.4588	    6.7856	  -15.4118	
 -820.0000	-4.834845E-10	-4.834845E-10	   22.4808	   22.4615	    6.7815	  -15.4171	
 -830.0000	-4.850958E-10	-4.850958E-10	   22.4808	   22.4615	    6.7815	  -15.4171	
 -840.0000	-4.864202E-10	-4.864202E-10	   22.4808	   22.4615	    6.7815	  -15.4171	
 -850.0000	-4.892492E-10	-4.892492E-10	   22.4808	   22.4555	    6.7878	  -15.4103	
 -860.0000	-4.909310E-10	-4.909310E-10	   22.4808	   22.4555	    6.7878	  -15.4103	
 -870.0000	-4.931781E-10	-4.931781E-10	   22.4808	   22.4548	    6.7830	  -15.4192	
 -880.0000	-4.953961E-10	-4.953961E-10	   22.4808	   22.4548	    6.7830	  -15.4192	
 -890.0000	-4.975272E-10	-4.975272E-10	   22.4808	   22.4556	    6.7830	  -15.4187	
 -900.0000	-5.001036E-10	-5.001036E-10	   22.4808	   22.4598	    6.7957	  -15.3931	
 -910.0000	-5.033040E-10	-5.033040E-10	   22.4808	   22.4598	    6.7957	  -15.3931	
 -920.0000	-5.053654E-10	-5.053654E-10	   22.4808	   22.4598	    6.7837	  -15.4144	
 -930.0000	-5.085214E-10	-5.085214E-10	   22.4808	   22.4598	    6.7837	  -15.4144	
 -940.0000	-5.119554E-10	-5.119554E-10	   22.4783	   22.4570	    6.7818	  -15.4199	
 -950.0000	-5.158218E-10	-5.158218E-10	   22.4783	   22.4570	    6.7818	  -15.4199	
 -960.0000	-5.203741E-10	-5.203741E-10	   22.4783	   22.4608	    6.7840	  -15.4132	
 -970.0000	-5.238982E-10	-5.238982E-10	   22.4783	   22.4576	    6.7900	  -15.4048	
 -980.0000	-5.285438E-10	-5.285438E-10	   22.4783	   22.4576	    6.7900	  -15.4048	
 -990.0000	-5.334690E-10	-5.334690E-10	   22.4757	   22.4624	    6.7672	  -15.4417	
-1000.0000	-5.389919E-10	-5.389919E-10	   22.4757	   22.4624	    6.7672	  -15.4417	
