38695_002_2-S_HM_XX_Unirrad
Date/Time: 2/8/2022 3:54:00 PM
Sensor Name: 38695_002_2-S_HM_XX
Station: Tesla
Annealing Status: Not Irradiated
Environment: 20C
Tester: Eric Spencer
Notes: cleaved at Brown

Time Delay per Ramp Step (s): 0.500

CV Time Delay per Measurement (s) :0.500

AC Voltage (V): 0.500

Current Number of measurements per voltage: 4.000

IV Time Delay per Measurement (s) :0.500


BiasVoltage	LCR_Cp_freq1	LCR_G_freq1	Temperature	Air_Temp	Humidity	Dewpoint	
   -5.0000	3.860E-10	2.847E-7	   20.0000	   30.1425	    1.5073	    0.0000	
  -10.0000	2.688E-10	4.975E-8	   20.0000	   30.1425	    1.5073	    0.0000	
  -15.0000	2.165E-10	2.915E-8	   20.0000	   30.1425	    1.5073	    0.0000	
  -20.0000	1.866E-10	2.411E-8	   20.0000	   30.1425	    1.5073	    0.0000	
  -25.0000	1.664E-10	1.899E-8	   20.0000	   30.1425	    1.5073	    0.0000	
  -30.0000	1.511E-10	1.754E-8	   20.0000	   30.1425	    1.5073	    0.0000	
  -35.0000	1.393E-10	1.429E-8	   20.0000	   30.1425	    1.5073	    0.0000	
  -40.0000	1.295E-10	1.535E-8	   20.0000	   30.1425	    1.5073	    0.0000	
  -45.0000	1.206E-10	1.028E-8	   20.0000	   30.1425	    1.5073	    0.0000	
  -50.0000	1.137E-10	9.916E-9	   20.0000	   30.1425	    1.5073	    0.0000	
  -55.0000	1.079E-10	1.015E-8	   20.0000	   30.1425	    1.5073	    0.0000	
  -60.0000	1.041E-10	8.578E-9	   20.0000	   30.1425	    1.5073	    0.0000	
  -65.0000	9.978E-11	8.924E-9	   20.0000	   30.1425	    1.5073	    0.0000	
  -70.0000	9.653E-11	9.925E-9	   20.0000	   30.1425	    1.5073	    0.0000	
  -75.0000	9.330E-11	1.039E-8	   20.0000	   30.1425	    1.5073	    0.0000	
  -80.0000	8.657E-11	1.437E-8	   20.0000	   30.1425	    1.5073	    0.0000	
  -85.0000	8.393E-11	1.027E-8	   20.0000	   30.1425	    1.5073	    0.0000	
  -90.0000	8.160E-11	9.638E-9	   20.0000	   30.1425	    1.5073	    0.0000	
  -95.0000	7.992E-11	7.277E-9	   20.0000	   30.1425	    1.5073	    0.0000	
 -100.0000	7.754E-11	4.930E-9	   20.0000	   30.1425	    1.5073	    0.0000	
 -105.0000	7.604E-11	3.153E-9	   20.0000	   30.1425	    1.5073	    0.0000	
 -110.0000	7.500E-11	4.752E-9	   20.0000	   30.1425	    1.5073	    0.0000	
 -115.0000	7.294E-11	6.532E-9	   20.0000	   30.1425	    1.5073	    0.0000	
 -120.0000	7.144E-11	3.042E-9	   20.0000	   30.1425	    1.5073	    0.0000	
 -125.0000	7.030E-11	7.389E-9	   20.0000	   30.1425	    1.5073	    0.0000	
 -130.0000	6.961E-11	4.584E-9	   20.0000	   30.1425	    1.5073	    0.0000	
 -135.0000	6.832E-11	4.374E-9	   20.0000	   30.1425	    1.5073	    0.0000	
 -140.0000	6.699E-11	9.130E-9	   20.0000	   30.1425	    1.5073	    0.0000	
 -145.0000	6.581E-11	8.019E-9	   20.0000	   30.1425	    1.5073	    0.0000	
 -150.0000	6.510E-11	4.114E-9	   20.0000	   30.1425	    1.5073	    0.0000	
 -155.0000	6.390E-11	3.348E-9	   20.0000	   30.1425	    1.5073	    0.0000	
 -160.0000	6.303E-11	5.849E-9	   20.0000	   30.1425	    1.5073	    0.0000	
 -165.0000	6.221E-11	4.690E-9	   20.0000	   30.1425	    1.5073	    0.0000	
 -170.0000	6.134E-11	3.362E-9	   20.0000	   30.1425	    1.5073	    0.0000	
 -175.0000	6.092E-11	3.343E-9	   20.0000	   30.1425	    1.5073	    0.0000	
 -180.0000	5.981E-11	5.935E-9	   20.0000	   30.1425	    1.5073	    0.0000	
 -185.0000	5.923E-11	4.391E-9	   20.0000	   30.1425	    1.5073	    0.0000	
 -190.0000	5.845E-11	2.364E-9	   20.0000	   30.1425	    1.5073	    0.0000	
 -195.0000	5.731E-11	5.424E-9	   20.0000	   30.1425	    1.5073	    0.0000	
 -200.0000	5.692E-11	2.541E-9	   20.0000	   30.1425	    1.5073	    0.0000	
 -205.0000	5.597E-11	2.522E-9	   20.0000	   30.1425	    1.5073	    0.0000	
 -210.0000	5.517E-11	3.973E-10	   20.0000	   30.1425	    1.5073	    0.0000	
 -215.0000	5.453E-11	2.607E-9	   20.0000	   30.1425	    1.5073	    0.0000	
 -220.0000	5.410E-11	3.044E-9	   20.0000	   30.1425	    1.5073	    0.0000	
 -225.0000	5.365E-11	3.568E-9	   20.0000	   30.1425	    1.5073	    0.0000	
 -230.0000	5.387E-11	2.193E-9	   20.0000	   30.1425	    1.5073	    0.0000	
 -235.0000	5.356E-11	5.122E-9	   20.0000	   30.1425	    1.5073	    0.0000	
 -240.0000	5.375E-11	4.213E-9	   20.0000	   30.1425	    1.5073	    0.0000	
 -245.0000	5.308E-11	5.794E-9	   20.0000	   30.1425	    1.5073	    0.0000	
 -250.0000	5.358E-11	1.508E-9	   20.0000	   30.1425	    1.5073	    0.0000	
 -255.0000	5.375E-11	7.142E-10	   20.0000	   30.1425	    1.5073	    0.0000	
 -260.0000	5.304E-11	7.115E-9	   20.0000	   30.1425	    1.5073	    0.0000	
 -265.0000	5.318E-11	2.052E-9	   20.0000	   30.1425	    1.5073	    0.0000	
 -270.0000	5.316E-11	6.646E-9	   20.0000	   30.1425	    1.5073	    0.0000	
 -275.0000	5.312E-11	6.590E-9	   20.0000	   30.1425	    1.5073	    0.0000	
 -280.0000	5.280E-11	5.848E-9	   20.0000	   30.1425	    1.5073	    0.0000	
 -285.0000	5.306E-11	3.625E-9	   20.0000	   30.1425	    1.5073	    0.0000	
 -290.0000	5.303E-11	3.258E-9	   20.0000	   30.1425	    1.5073	    0.0000	
 -295.0000	5.267E-11	4.056E-9	   20.0000	   30.1425	    1.5073	    0.0000	
 -300.0000	5.255E-11	2.920E-9	   20.0000	   30.1425	    1.5073	    0.0000	
 -305.0000	5.278E-11	4.106E-9	   20.0000	   30.1425	    1.5073	    0.0000	
 -310.0000	5.244E-11	4.295E-9	   20.0000	   30.1425	    1.5073	    0.0000	
 -315.0000	5.283E-11	3.145E-9	   20.0000	   30.1425	    1.5073	    0.0000	
 -320.0000	5.305E-11	2.607E-9	   20.0000	   30.1425	    1.5073	    0.0000	
 -325.0000	5.227E-11	2.561E-9	   20.0000	   30.1425	    1.5073	    0.0000	
 -330.0000	5.261E-11	7.001E-9	   20.0000	   30.1425	    1.5073	    0.0000	
 -335.0000	5.268E-11	-7.308E-10	   20.0000	   30.1425	    1.5073	    0.0000	
 -340.0000	5.348E-11	3.474E-9	   20.0000	   30.1425	    1.5073	    0.0000	
 -345.0000	5.261E-11	4.449E-9	   20.0000	   30.1425	    1.5073	    0.0000	
 -350.0000	5.273E-11	6.725E-10	   20.0000	   30.1425	    1.5073	    0.0000	
 -355.0000	5.260E-11	1.817E-9	   20.0000	   30.1425	    1.5073	    0.0000	
 -360.0000	5.274E-11	1.318E-9	   20.0000	   30.1425	    1.5073	    0.0000	
 -365.0000	5.273E-11	3.554E-9	   20.0000	   30.1425	    1.5073	    0.0000	
 -370.0000	5.289E-11	4.324E-9	   20.0000	   30.1425	    1.5073	    0.0000	
 -375.0000	5.266E-11	2.889E-9	   20.0000	   30.1425	    1.5073	    0.0000	
 -380.0000	5.318E-11	6.562E-10	   20.0000	   30.1425	    1.5073	    0.0000	
 -385.0000	5.276E-11	3.975E-9	   20.0000	   30.1425	    1.5073	    0.0000	
 -390.0000	5.270E-11	7.898E-9	   20.0000	   30.1425	    1.5073	    0.0000	
 -395.0000	5.234E-11	4.139E-9	   20.0000	   30.1425	    1.5073	    0.0000	
 -400.0000	5.291E-11	4.586E-9	   20.0000	   30.1425	    1.5073	    0.0000	
 -410.0000	5.295E-11	1.833E-9	   20.0000	   30.1425	    1.5073	    0.0000	
 -420.0000	5.234E-11	-2.889E-11	   20.0000	   30.1425	    1.5073	    0.0000	
 -430.0000	5.307E-11	3.714E-9	   20.0000	   30.1425	    1.5073	    0.0000	
 -440.0000	5.299E-11	4.405E-9	   20.0000	   30.1425	    1.5073	    0.0000	
 -450.0000	5.247E-11	2.004E-9	   20.0000	   30.1425	    1.5073	    0.0000	
 -460.0000	5.301E-11	1.871E-9	   20.0000	   30.1425	    1.5073	    0.0000	
 -470.0000	5.225E-11	1.009E-9	   20.0000	   30.1425	    1.5073	    0.0000	
 -480.0000	5.266E-11	5.058E-9	   20.0000	   30.1425	    1.5073	    0.0000	
 -490.0000	5.268E-11	1.642E-9	   20.0000	   30.1425	    1.5073	    0.0000	
 -500.0000	5.285E-11	1.962E-9	   20.0000	   30.1425	    1.5073	    0.0000	
 -510.0000	5.275E-11	4.832E-9	   20.0000	   30.1425	    1.5073	    0.0000	
 -520.0000	5.276E-11	3.320E-9	   20.0000	   30.1425	    1.5073	    0.0000	
 -530.0000	5.273E-11	4.274E-9	   20.0000	   30.1425	    1.5073	    0.0000	
 -540.0000	5.271E-11	2.227E-9	   20.0000	   30.1425	    1.5073	    0.0000	
 -550.0000	5.250E-11	3.474E-9	   20.0000	   30.1425	    1.5073	    0.0000	
 -560.0000	5.251E-11	6.014E-9	   20.0000	   30.1425	    1.5073	    0.0000	
 -570.0000	5.258E-11	5.357E-9	   20.0000	   30.1425	    1.5073	    0.0000	
 -580.0000	5.241E-11	1.164E-9	   20.0000	   30.1425	    1.5073	    0.0000	
 -590.0000	5.256E-11	5.430E-9	   20.0000	   30.1425	    1.5073	    0.0000	
 -600.0000	5.230E-11	4.309E-9	   20.0000	   30.1425	    1.5073	    0.0000	
