GCD Test
Bias: 5000.000000
IV_38695_002_2-S_HM_XX_DIODE
Date/Time: 2/11/2022 11:58:16 AM
Sensor Name: DIODE
Type: 
Annealing Status: Not Irradiated
Environment: 
Tester: Andrew Kent

Time Delay per Ramp Step (s): 0.500

CV Time Delay per Measurement (s) :0.500

AC Voltage (V): 0.500

Current Number of measurements per voltage: 1.000

IV Time Delay per Measurement (s) :0.000


BiasVoltage	Total Current_Avg	Total Current_0	Bias Current_Avg	Bias Current_0	Temperature	Air_Temp	Humidity	Dewpoint	
  -10.0000	-1.5900E-10	-1.5900E-10	-1.719472E-10	-1.719472E-10	   19.9807	   21.5400	   21.6524	   -1.2791	
  -20.0000	-2.1800E-10	-2.1800E-10	-1.817139E-10	-1.817139E-10	   19.9833	   21.5404	   21.6461	   -1.2828	
  -30.0000	-2.9200E-10	-2.9200E-10	-1.955309E-10	-1.955309E-10	   19.9961	   21.5404	   21.6268	   -1.2828	
  -40.0000	-3.7600E-10	-3.7600E-10	-2.179100E-10	-2.179100E-10	   19.9961	   21.5446	   21.6268	   -1.2914	
  -50.0000	-4.2200E-10	-4.2200E-10	-2.365361E-10	-2.365361E-10	   20.0116	   21.5455	   21.6271	   -1.2904	
  -60.0000	-4.0300E-10	-4.0300E-10	-2.465290E-10	-2.465290E-10	   20.0193	   21.5455	   21.6268	   -1.2904	
  -70.0000	-4.3700E-10	-4.3700E-10	-2.565377E-10	-2.565377E-10	   20.0245	   21.5467	   21.6230	   -1.2897	
  -80.0000	-4.8200E-10	-4.8200E-10	-2.589474E-10	-2.589474E-10	   20.0245	   21.5453	   21.6085	   -1.2932	
  -90.0000	-5.0500E-10	-5.0500E-10	-2.617610E-10	-2.617610E-10	   20.0193	   21.5458	   21.6101	   -1.3019	
 -100.0000	-6.2300E-10	-6.2300E-10	-2.638016E-10	-2.638016E-10	   20.0142	   21.5446	   21.6151	   -1.3020	
 -110.0000	-6.1400E-10	-6.1400E-10	-2.659688E-10	-2.659688E-10	   20.0142	   21.5484	   21.6151	   -1.2956	
 -120.0000	-5.9300E-10	-5.9300E-10	-2.675410E-10	-2.675410E-10	   20.0013	   21.5477	   21.6022	   -1.3044	
 -130.0000	-5.9200E-10	-5.9200E-10	-2.698075E-10	-2.698075E-10	   19.9936	   21.5481	   21.5980	   -1.3066	
 -140.0000	-6.0600E-10	-6.0600E-10	-2.725661E-10	-2.725661E-10	   19.9858	   21.5495	   21.5980	   -1.3054	
 -150.0000	-6.0400E-10	-6.0400E-10	-2.756870E-10	-2.756870E-10	   19.9781	   21.5556	   21.5889	   -1.3061	
 -160.0000	-6.2400E-10	-6.2400E-10	-2.805173E-10	-2.805173E-10	   19.9755	   21.5514	   21.5952	   -1.3056	
 -170.0000	-6.4900E-10	-6.4900E-10	-2.872330E-10	-2.872330E-10	   19.9730	   21.5494	   21.5860	   -1.3131	
 -180.0000	-6.7300E-10	-6.7300E-10	-2.962365E-10	-2.962365E-10	   19.9755	   21.5502	   21.5848	   -1.3133	
 -190.0000	-7.2500E-10	-7.2500E-10	-3.078977E-10	-3.078977E-10	   19.9807	   21.5528	   21.5892	   -1.3083	
 -200.0000	-7.4800E-10	-7.4800E-10	-3.224940E-10	-3.224940E-10	   19.9884	   21.5531	   21.5787	   -1.3146	
 -210.0000	-8.1800E-10	-8.1800E-10	-3.353009E-10	-3.353009E-10	   19.9987	   21.5506	   21.5778	   -1.3173	
 -220.0000	-8.5500E-10	-8.5500E-10	-3.471872E-10	-3.471872E-10	   20.0167	   21.5537	   21.5740	   -1.3171	
 -230.0000	-9.6500E-10	-9.6500E-10	-3.545763E-10	-3.545763E-10	   20.0270	   21.5537	   21.5740	   -1.3171	
 -240.0000	-1.0330E-9	-1.0330E-9	-3.614383E-10	-3.614383E-10	   20.0296	   21.5556	   21.5772	   -1.3139	
 -250.0000	-9.0400E-10	-9.0400E-10	-3.662474E-10	-3.662474E-10	   20.0322	   21.5556	   21.5832	   -1.3135	
 -260.0000	-9.2400E-10	-9.2400E-10	-3.723444E-10	-3.723444E-10	   20.0245	   21.5520	   21.5756	   -1.3128	
 -270.0000	-1.0980E-9	-1.0980E-9	-3.761394E-10	-3.761394E-10	   20.0193	   21.5497	   21.5756	   -1.3194	
 -280.0000	-9.4900E-10	-9.4900E-10	-3.808130E-10	-3.808130E-10	   20.0090	   21.5524	   21.5705	   -1.3250	
 -290.0000	-1.1370E-9	-1.1370E-9	-3.842542E-10	-3.842542E-10	   20.0013	   21.5524	   21.5705	   -1.3204	
 -300.0000	-9.8000E-10	-9.8000E-10	-3.885272E-10	-3.885272E-10	   19.9936	   21.5498	   21.5674	   -1.3301	
 -310.0000	-1.0760E-9	-1.0760E-9	-3.914509E-10	-3.914509E-10	   19.9884	   21.5498	   21.5563	   -1.3245	
 -320.0000	-9.8400E-10	-9.8400E-10	-3.938209E-10	-3.938209E-10	   19.9884	   21.5462	   21.5563	   -1.3345	
 -330.0000	-1.0140E-9	-1.0140E-9	-3.972413E-10	-3.972413E-10	   19.9833	   21.5451	   21.5610	   -1.3325	
 -340.0000	-1.0570E-9	-1.0570E-9	-4.013389E-10	-4.013389E-10	   19.9833	   21.5457	   21.5591	   -1.3331	
 -350.0000	-1.0820E-9	-1.0820E-9	-4.047094E-10	-4.047094E-10	   19.9858	   21.5457	   21.5591	   -1.3331	
 -360.0000	-1.0710E-9	-1.0710E-9	-4.071875E-10	-4.071875E-10	   19.9884	   21.5535	   21.5519	   -1.3304	
 -370.0000	-1.2170E-9	-1.2170E-9	-4.107860E-10	-4.107860E-10	   19.9961	   21.5535	   21.5519	   -1.3312	
 -380.0000	-1.0900E-9	-1.0900E-9	-4.133145E-10	-4.133145E-10	   20.0013	   21.5506	   21.5515	   -1.3387	
 -390.0000	-1.1130E-9	-1.1130E-9	-4.150954E-10	-4.150954E-10	   20.0090	   21.5506	   21.5487	   -1.3339	
 -400.0000	-1.2130E-9	-1.2130E-9	-4.188408E-10	-4.188408E-10	   20.0167	   21.5522	   21.5487	   -1.3343	
 -420.0000	-1.2750E-9	-1.2750E-9	-4.234570E-10	-4.234570E-10	   20.0167	   21.5482	   21.5443	   -1.3404	
 -440.0000	-1.3570E-9	-1.3570E-9	-4.275776E-10	-4.275776E-10	   20.0193	   21.5482	   21.5459	   -1.3394	
 -460.0000	-1.4250E-9	-1.4250E-9	-4.324018E-10	-4.324018E-10	   20.0193	   21.5495	   21.5395	   -1.3423	
 -480.0000	-1.4810E-9	-1.4810E-9	-4.354815E-10	-4.354815E-10	   20.0167	   21.5490	   21.5563	   -1.3322	
 -500.0000	-1.5890E-9	-1.5890E-9	-4.387621E-10	-4.387621E-10	   20.0142	   21.5480	   21.5430	   -1.3414	
 -520.0000	-1.7180E-9	-1.7180E-9	-4.424850E-10	-4.424850E-10	   20.0090	   21.5521	   21.5389	   -1.3406	
 -540.0000	-1.7170E-9	-1.7170E-9	-4.462500E-10	-4.462500E-10	   20.0013	   21.5521	   21.5443	   -1.3406	
 -560.0000	-1.7320E-9	-1.7320E-9	-4.490977E-10	-4.490977E-10	   20.0013	   21.5521	   21.5443	   -1.3372	
 -580.0000	-1.7200E-9	-1.7200E-9	-4.523815E-10	-4.523815E-10	   19.9936	   21.5418	   21.5342	   -1.3522	
 -600.0000	-1.7810E-9	-1.7810E-9	-4.562673E-10	-4.562673E-10	   19.9884	   21.5466	   21.5329	   -1.3489	
 -620.0000	-1.9030E-9	-1.9030E-9	-4.594020E-10	-4.594020E-10	   19.9833	   21.5466	   21.5361	   -1.3489	
 -640.0000	-1.8870E-9	-1.8870E-9	-4.627570E-10	-4.627570E-10	   19.9833	   21.5447	   21.5361	   -1.3485	
 -660.0000	-2.0000E-9	-2.0000E-9	-4.662372E-10	-4.662372E-10	   19.9807	   21.5439	   21.5310	   -1.3524	
 -680.0000	-1.9550E-9	-1.9550E-9	-4.703313E-10	-4.703313E-10	   19.9858	   21.5442	   21.5259	   -1.3553	
 -700.0000	-2.0490E-9	-2.0490E-9	-4.740669E-10	-4.740669E-10	   19.9858	   21.5442	   21.5259	   -1.3553	
 -720.0000	-2.0760E-9	-2.0760E-9	-4.773562E-10	-4.773562E-10	   19.9884	   21.5419	   21.5294	   -1.3550	
 -740.0000	-2.2580E-9	-2.2580E-9	-4.814238E-10	-4.814238E-10	   19.9961	   21.5443	   21.5300	   -1.3527	
 -760.0000	-2.1020E-9	-2.1020E-9	-4.852482E-10	-4.852482E-10	   20.0064	   21.5443	   21.5332	   -1.3527	
 -780.0000	-2.1470E-9	-2.1470E-9	-4.890593E-10	-4.890593E-10	   20.0064	   21.5443	   21.5332	   -1.3507	
 -800.0000	-2.1310E-9	-2.1310E-9	-4.925567E-10	-4.925567E-10	   20.0142	   21.5437	   21.5225	   -1.3579	
 -820.0000	-2.1370E-9	-2.1370E-9	-4.965723E-10	-4.965723E-10	   20.0193	   21.5429	   21.5196	   -1.3604	
 -840.0000	-2.2250E-9	-2.2250E-9	-5.012480E-10	-5.012480E-10	   20.0193	   21.5429	   21.5196	   -1.3604	
 -860.0000	-2.2260E-9	-2.2260E-9	-5.053728E-10	-5.053728E-10	   20.0219	   21.5401	   21.5300	   -1.3562	
 -880.0000	-2.2060E-9	-2.2060E-9	-5.097952E-10	-5.097952E-10	   20.0193	   21.5390	   21.5164	   -1.3656	
 -900.0000	-2.2170E-9	-2.2170E-9	-5.147439E-10	-5.147439E-10	   20.0142	   21.5347	   21.5228	   -1.3653	
 -920.0000	-2.2670E-9	-2.2670E-9	-5.195737E-10	-5.195737E-10	   20.0116	   21.5370	   21.5183	   -1.3661	
 -940.0000	-2.3130E-9	-2.3130E-9	-5.258003E-10	-5.258003E-10	   20.0039	   21.5405	   21.5218	   -1.3610	
 -960.0000	-2.5110E-9	-2.5110E-9	-5.329133E-10	-5.329133E-10	   19.9961	   21.5409	   21.5180	   -1.3631	
 -980.0000	-2.3720E-9	-2.3720E-9	-5.401302E-10	-5.401302E-10	   19.9858	   21.5409	   21.5127	   -1.3631	
-1000.0000	-2.4510E-9	-2.4510E-9	-5.484965E-10	-5.484965E-10	   19.9858	   21.5409	   21.5127	   -1.3665	
