GCD Test
Bias: 5000.000000
IV_38212_001_PSS_HM_XX_DIODE
Date/Time: 12/21/2021 2:28:07 PM
Sensor Name: 38212_001_DIODE
Type: P
Annealing Status: Unirradiated
Environment: 20C
Tester: Andrew Kent

Time Delay per Ramp Step (s): 0.500

CV Time Delay per Measurement (s) :0.500

AC Voltage (V): 0.500

Current Number of measurements per voltage: 1.000

IV Time Delay per Measurement (s) :0.000


BiasVoltage	Total Current_Avg	Total Current_0	Bias Current_Avg	Bias Current_0	Temperature	Air_Temp	Humidity	Dewpoint	
  -10.0000	-2.2300E-10	-2.2300E-10	-1.805682E-10	-1.805682E-10	   20.0013	   21.6951	   22.1287	   -0.8533	
  -20.0000	-2.6300E-10	-2.6300E-10	-1.931413E-10	-1.931413E-10	   20.0013	   21.6891	   22.1467	   -0.8471	
  -30.0000	-1.9700E-10	-1.9700E-10	-2.086080E-10	-2.086080E-10	   20.0013	   21.6858	   22.1512	   -0.8472	
  -40.0000	-3.5900E-10	-3.5900E-10	-2.299804E-10	-2.299804E-10	   20.0013	   21.6858	   22.1645	   -0.8472	
  -50.0000	-4.3600E-10	-4.3600E-10	-2.511876E-10	-2.511876E-10	   20.0039	   21.6907	   22.1629	   -0.8349	
  -60.0000	-4.9300E-10	-4.9300E-10	-2.614945E-10	-2.614945E-10	   20.0013	   21.6944	   22.1705	   -0.8328	
  -70.0000	-3.8700E-10	-3.8700E-10	-2.727836E-10	-2.727836E-10	   20.0013	   21.6933	   22.1790	   -0.8290	
  -80.0000	-5.4200E-10	-5.4200E-10	-2.775985E-10	-2.775985E-10	   20.0013	   21.6921	   22.1790	   -0.8248	
  -90.0000	-4.8600E-10	-4.8600E-10	-2.814979E-10	-2.814979E-10	   20.0013	   21.6897	   22.1730	   -0.8304	
 -100.0000	-5.1600E-10	-5.1600E-10	-2.850840E-10	-2.850840E-10	   20.0013	   21.6936	   22.1831	   -0.8209	
 -110.0000	-5.4500E-10	-5.4500E-10	-2.881819E-10	-2.881819E-10	   20.0013	   21.6963	   22.1888	   -0.8152	
 -120.0000	-5.5700E-10	-5.5700E-10	-2.919126E-10	-2.919126E-10	   20.0039	   21.6951	   22.1898	   -0.8156	
 -130.0000	-5.6900E-10	-5.6900E-10	-2.947616E-10	-2.947616E-10	   20.0039	   21.6963	   22.1977	   -0.8098	
 -140.0000	-7.0400E-10	-7.0400E-10	-2.983906E-10	-2.983906E-10	   20.0039	   21.6879	   22.2021	   -0.8141	
 -150.0000	-6.5200E-10	-6.5200E-10	-3.018160E-10	-3.018160E-10	   20.0039	   21.6930	   22.1967	   -0.8132	
 -160.0000	-7.0400E-10	-7.0400E-10	-3.069990E-10	-3.069990E-10	   20.0039	   21.6891	   22.2024	   -0.8129	
 -170.0000	-6.4500E-10	-6.4500E-10	-3.141588E-10	-3.141588E-10	   20.0039	   21.6854	   22.2075	   -0.8128	
 -180.0000	-6.7400E-10	-6.7400E-10	-3.237642E-10	-3.237642E-10	   20.0039	   21.6884	   22.2185	   -0.8035	
 -190.0000	-7.0400E-10	-7.0400E-10	-3.371334E-10	-3.371334E-10	   20.0039	   21.6896	   22.2141	   -0.8053	
 -200.0000	-7.6500E-10	-7.6500E-10	-3.538206E-10	-3.538206E-10	   20.0013	   21.6856	   22.2144	   -0.8084	
 -210.0000	-8.2800E-10	-8.2800E-10	-3.727754E-10	-3.727754E-10	   20.0013	   21.6854	   22.2214	   -0.8043	
 -220.0000	-8.7600E-10	-8.7600E-10	-3.926654E-10	-3.926654E-10	   20.0013	   21.6854	   22.2230	   -0.8043	
 -230.0000	-8.6900E-10	-8.6900E-10	-4.096780E-10	-4.096780E-10	   20.0013	   21.6868	   22.2230	   -0.8022	
 -240.0000	-9.3000E-10	-9.3000E-10	-4.222958E-10	-4.222958E-10	   20.0013	   21.6896	   22.2233	   -0.7996	
 -250.0000	-9.5100E-10	-9.5100E-10	-4.325114E-10	-4.325114E-10	   20.0013	   21.6891	   22.2249	   -0.7991	
 -260.0000	-1.0830E-9	-1.0830E-9	-4.409836E-10	-4.409836E-10	   20.0013	   21.6804	   22.2226	   -0.8077	
 -270.0000	-1.0490E-9	-1.0490E-9	-4.482260E-10	-4.482260E-10	   20.0039	   21.6829	   22.2245	   -0.8044	
 -280.0000	-1.1290E-9	-1.1290E-9	-4.548698E-10	-4.548698E-10	   20.0039	   21.6798	   22.2226	   -0.8082	
 -290.0000	-1.1530E-9	-1.1530E-9	-4.609918E-10	-4.609918E-10	   20.0039	   21.6804	   22.2309	   -0.8026	
 -300.0000	-1.0390E-9	-1.0390E-9	-4.659896E-10	-4.659896E-10	   20.0013	   21.6848	   22.2391	   -0.7939	
 -310.0000	-1.2210E-9	-1.2210E-9	-4.706871E-10	-4.706871E-10	   20.0013	   21.6848	   22.2391	   -0.7939	
 -320.0000	-1.1530E-9	-1.1530E-9	-4.750978E-10	-4.750978E-10	   20.0013	   21.6879	   22.2353	   -0.7937	
 -330.0000	-1.1750E-9	-1.1750E-9	-4.796322E-10	-4.796322E-10	   20.0013	   21.6796	   22.2369	   -0.7996	
 -340.0000	-1.1540E-9	-1.1540E-9	-4.828528E-10	-4.828528E-10	   20.0013	   21.6852	   22.2331	   -0.7973	
 -350.0000	-1.3440E-9	-1.3440E-9	-4.868727E-10	-4.868727E-10	   20.0013	   21.6789	   22.2426	   -0.7967	
 -360.0000	-1.1430E-9	-1.1430E-9	-4.902097E-10	-4.902097E-10	   20.0013	   21.6789	   22.2419	   -0.7967	
 -370.0000	-1.3880E-9	-1.3880E-9	-4.937321E-10	-4.937321E-10	   20.0013	   21.6789	   22.2419	   -0.7971	
 -380.0000	-1.1960E-9	-1.1960E-9	-4.966300E-10	-4.966300E-10	   20.0039	   21.6785	   22.2483	   -0.7936	
 -390.0000	-1.3390E-9	-1.3390E-9	-5.000925E-10	-5.000925E-10	   20.0013	   21.6785	   22.2359	   -0.7936	
 -400.0000	-1.2490E-9	-1.2490E-9	-5.027084E-10	-5.027084E-10	   20.0013	   21.6785	   22.2359	   -0.8011	
 -420.0000	-1.3550E-9	-1.3550E-9	-5.080244E-10	-5.080244E-10	   20.0013	   21.6785	   22.2517	   -0.7914	
 -440.0000	-1.4910E-9	-1.4910E-9	-5.130836E-10	-5.130836E-10	   20.0013	   21.6763	   22.2476	   -0.7957	
 -460.0000	-1.5070E-9	-1.5070E-9	-5.179299E-10	-5.179299E-10	   20.0013	   21.6772	   22.2432	   -0.7977	
 -480.0000	-1.6520E-9	-1.6520E-9	-5.224716E-10	-5.224716E-10	   20.0013	   21.6772	   22.2426	   -0.7977	
 -500.0000	-1.6950E-9	-1.6950E-9	-5.268203E-10	-5.268203E-10	   20.0013	   21.6749	   22.2426	   -0.8001	
 -520.0000	-1.8140E-9	-1.8140E-9	-5.317112E-10	-5.317112E-10	   20.0013	   21.6765	   22.2543	   -0.7915	
 -540.0000	-1.9300E-9	-1.9300E-9	-5.361706E-10	-5.361706E-10	   20.0013	   21.6708	   22.2581	   -0.7939	
 -560.0000	-1.8450E-9	-1.8450E-9	-5.396223E-10	-5.396223E-10	   20.0013	   21.6708	   22.2581	   -0.7939	
 -580.0000	-1.8920E-9	-1.8920E-9	-5.438457E-10	-5.438457E-10	   20.0013	   21.6713	   22.2577	   -0.7937	
 -600.0000	-1.9460E-9	-1.9460E-9	-5.472984E-10	-5.472984E-10	   20.0013	   21.6694	   22.2473	   -0.8017	
 -620.0000	-2.0020E-9	-2.0020E-9	-5.515335E-10	-5.515335E-10	   20.0013	   21.6700	   22.2524	   -0.7981	
 -640.0000	-2.1300E-9	-2.1300E-9	-5.551288E-10	-5.551288E-10	   20.0013	   21.6700	   22.2552	   -0.7981	
 -660.0000	-2.0230E-9	-2.0230E-9	-5.586798E-10	-5.586798E-10	   20.0013	   21.6751	   22.2552	   -0.7921	
 -680.0000	-2.0510E-9	-2.0510E-9	-5.622979E-10	-5.622979E-10	   20.0013	   21.6698	   22.2609	   -0.7930	
 -700.0000	-2.1730E-9	-2.1730E-9	-5.660560E-10	-5.660560E-10	   20.0013	   21.6742	   22.2546	   -0.7932	
 -720.0000	-2.1820E-9	-2.1820E-9	-5.696266E-10	-5.696266E-10	   20.0013	   21.6742	   22.2568	   -0.7932	
 -740.0000	-2.1880E-9	-2.1880E-9	-5.736208E-10	-5.736208E-10	   20.0013	   21.6678	   22.2568	   -0.7973	
 -760.0000	-2.1880E-9	-2.1880E-9	-5.773319E-10	-5.773319E-10	   20.0013	   21.6703	   22.2568	   -0.7951	
 -780.0000	-2.2970E-9	-2.2970E-9	-5.811130E-10	-5.811130E-10	   19.9987	   21.6702	   22.2615	   -0.7923	
 -800.0000	-2.2340E-9	-2.2340E-9	-5.857175E-10	-5.857175E-10	   19.9987	   21.6716	   22.2483	   -0.7993	
 -820.0000	-2.4340E-9	-2.4340E-9	-5.890865E-10	-5.890865E-10	   19.9987	   21.6703	   22.2479	   -0.8006	
 -840.0000	-2.4060E-9	-2.4060E-9	-5.939072E-10	-5.939072E-10	   19.9987	   21.6703	   22.2536	   -0.8006	
 -860.0000	-2.3120E-9	-2.3120E-9	-5.987972E-10	-5.987972E-10	   19.9987	   21.6703	   22.2536	   -0.7971	
 -880.0000	-2.4080E-9	-2.4080E-9	-6.037014E-10	-6.037014E-10	   20.0013	   21.6714	   22.2562	   -0.7946	
 -900.0000	-2.3860E-9	-2.3860E-9	-6.092862E-10	-6.092862E-10	   19.9987	   21.6691	   22.2530	   -0.7984	
 -920.0000	-2.4950E-9	-2.4950E-9	-6.149024E-10	-6.149024E-10	   20.0013	   21.6666	   22.2492	   -0.8029	
 -940.0000	-2.4460E-9	-2.4460E-9	-6.212596E-10	-6.212596E-10	   20.0013	   21.6666	   22.2559	   -0.8029	
 -960.0000	-2.4710E-9	-2.4710E-9	-6.281211E-10	-6.281211E-10	   20.0013	   21.6705	   22.2559	   -0.7955	
 -980.0000	-2.5610E-9	-2.5610E-9	-6.353867E-10	-6.353867E-10	   20.0013	   21.6714	   22.2454	   -0.8012	
-1000.0000	-2.7400E-9	-2.7400E-9	-6.440361E-10	-6.440361E-10	   20.0013	   21.6723	   22.2451	   -0.8007	
