GCD Test
Bias: 5000.000000
CV_37895_046_PSS_HM_XX_DIODEQUARTER
Date/Time: 12/16/2021 7:31:55 PM
Sensor Name: DIODEQUARTER
Type: P
Annealing Status: Unirradiated 
Environment: 20C
Tester: Andrew Kent

Time Delay per Ramp Step (s): 0.500

CV Time Delay per Measurement (s) :0.500

AC Voltage (V): 0.500

Current Number of measurements per voltage: 1.000

IV Time Delay per Measurement (s) :0.000


BiasVoltage	LCR_Cp_freq1000.0	LCR_Rp_freq1000.0	Temperature	Air_Temp	Humidity	Dewpoint	
   -5.0000	1.094E-11	4.423E+9	   20.0013	   21.3811	   22.7770	   -0.7212	
  -10.0000	7.705E-12	7.936E+9	   20.0013	   21.3823	   22.7764	   -0.7205	
  -15.0000	6.068E-12	6.326E+9	   20.0013	   21.3823	   22.7764	   -0.7205	
  -20.0000	4.868E-12	7.504E+9	   20.0039	   21.3786	   22.7676	   -0.7289	
  -25.0000	3.713E-12	6.587E+9	   20.0013	   21.3828	   22.7615	   -0.7290	
  -30.0000	2.849E-12	8.662E+9	   20.0013	   21.3828	   22.7615	   -0.7290	
  -35.0000	2.430E-12	1.084E+10	   20.0013	   21.3810	   22.7707	   -0.7250	
  -40.0000	2.196E-12	8.976E+9	   20.0013	   21.3788	   22.7742	   -0.7248	
  -45.0000	2.021E-12	1.323E+9	   20.0013	   21.3829	   22.7726	   -0.7224	
  -50.0000	8.717E-13	4.439E+9	   20.0013	   21.3837	   22.7726	   -0.7216	
  -55.0000	8.090E-13	4.237E+9	   19.9987	   21.3818	   22.7704	   -0.7246	
  -60.0000	7.632E-13	5.450E+9	   20.0013	   21.3805	   22.7821	   -0.7186	
  -65.0000	7.246E-13	6.203E+9	   20.0013	   21.3803	   22.7812	   -0.7194	
  -70.0000	6.847E-13	4.924E+9	   19.9987	   21.3814	   22.7925	   -0.7116	
  -75.0000	6.502E-13	5.399E+9	   20.0013	   21.3822	   22.7989	   -0.7071	
  -80.0000	6.176E-13	5.140E+9	   19.9987	   21.3848	   22.7913	   -0.7095	
  -85.0000	5.854E-13	5.477E+9	   19.9987	   21.3832	   22.7976	   -0.7071	
  -90.0000	5.655E-13	6.354E+9	   19.9987	   21.3804	   22.7922	   -0.7126	
  -95.0000	5.400E-13	6.014E+9	   19.9987	   21.3783	   22.7922	   -0.7144	
 -100.0000	5.107E-13	5.973E+9	   19.9987	   21.3822	   22.7998	   -0.7066	
 -105.0000	4.934E-13	5.960E+9	   19.9987	   21.3798	   22.8061	   -0.7048	
 -110.0000	4.761E-13	5.594E+9	   19.9987	   21.3774	   22.8055	   -0.7072	
 -115.0000	4.553E-13	5.790E+9	   19.9987	   21.3774	   22.8055	   -0.7072	
 -120.0000	4.420E-13	6.498E+9	   19.9987	   21.3802	   22.8226	   -0.6947	
 -125.0000	4.244E-13	7.493E+9	   19.9987	   21.3787	   22.8352	   -0.6883	
 -130.0000	4.114E-13	6.811E+9	   20.0013	   21.3748	   22.8305	   -0.6944	
 -135.0000	3.969E-13	6.347E+9	   20.0013	   21.3764	   22.8374	   -0.6889	
 -140.0000	3.840E-13	9.227E+9	   20.0013	   21.3764	   22.8374	   -0.6889	
 -145.0000	3.722E-13	8.324E+9	   20.0013	   21.3744	   22.8419	   -0.6880	
 -150.0000	3.654E-13	8.390E+9	   20.0013	   21.3744	   22.8498	   -0.6832	
 -155.0000	3.471E-13	6.434E+9	   20.0013	   21.3744	   22.8552	   -0.6799	
 -160.0000	3.384E-13	8.711E+9	   20.0013	   21.3703	   22.8536	   -0.6843	
 -165.0000	3.285E-13	9.074E+9	   20.0013	   21.3725	   22.8466	   -0.6866	
 -170.0000	3.172E-13	7.796E+9	   19.9987	   21.3703	   22.8409	   -0.6920	
 -175.0000	3.067E-13	7.234E+9	   19.9987	   21.3700	   22.8571	   -0.6825	
 -180.0000	2.987E-13	9.463E+9	   19.9987	   21.3645	   22.8643	   -0.6828	
 -185.0000	2.899E-13	1.062E+10	   19.9987	   21.3670	   22.8624	   -0.6818	
 -190.0000	2.786E-13	1.159E+10	   20.0013	   21.3664	   22.8688	   -0.6785	
 -195.0000	2.748E-13	9.163E+9	   19.9987	   21.3641	   22.8700	   -0.6797	
 -200.0000	2.643E-13	1.169E+10	   20.0013	   21.3627	   22.8691	   -0.6814	
 -205.0000	2.547E-13	1.306E+10	   20.0013	   21.3639	   22.8697	   -0.6800	
 -210.0000	2.489E-13	1.026E+10	   20.0013	   21.3665	   22.8725	   -0.6762	
 -215.0000	2.392E-13	8.858E+9	   20.0013	   21.3637	   22.8653	   -0.6829	
 -220.0000	2.333E-13	1.311E+10	   20.0013	   21.3612	   22.8773	   -0.6778	
 -225.0000	2.322E-13	1.206E+10	   20.0013	   21.3559	   22.8817	   -0.6795	
 -230.0000	2.239E-13	9.709E+9	   19.9987	   21.3550	   22.8748	   -0.6845	
 -235.0000	2.224E-13	9.470E+9	   19.9987	   21.3601	   22.8722	   -0.6817	
 -240.0000	2.210E-13	1.395E+10	   19.9987	   21.3581	   22.8817	   -0.6778	
 -245.0000	2.167E-13	7.312E+9	   19.9987	   21.3584	   22.8754	   -0.6813	
 -250.0000	2.186E-13	8.641E+9	   19.9987	   21.3536	   22.8763	   -0.6847	
 -255.0000	2.140E-13	1.266E+10	   19.9987	   21.3591	   22.8934	   -0.6699	
 -260.0000	2.113E-13	9.113E+9	   19.9987	   21.3559	   22.8707	   -0.6862	
 -265.0000	2.121E-13	7.265E+9	   19.9987	   21.3508	   22.8887	   -0.6797	
 -270.0000	2.093E-13	8.306E+9	   19.9987	   21.3566	   22.8858	   -0.6765	
 -275.0000	2.073E-13	1.041E+10	   19.9987	   21.3566	   22.8830	   -0.6782	
 -280.0000	2.063E-13	7.802E+9	   19.9987	   21.3535	   22.8858	   -0.6791	
 -285.0000	2.042E-13	9.066E+9	   19.9987	   21.3488	   22.8975	   -0.6761	
 -290.0000	2.088E-13	1.411E+10	   19.9987	   21.3488	   22.8975	   -0.6761	
 -295.0000	2.045E-13	8.761E+9	   20.0013	   21.3559	   22.8903	   -0.6745	
 -300.0000	2.056E-13	2.074E+10	   20.0013	   21.3545	   22.8931	   -0.6739	
 -305.0000	2.001E-13	9.889E+9	   20.0013	   21.3545	   22.8931	   -0.6739	
 -310.0000	2.023E-13	9.122E+9	   20.0013	   21.3588	   22.8903	   -0.6720	
 -315.0000	2.042E-13	2.196E+10	   20.0013	   21.3622	   22.8928	   -0.6677	
 -320.0000	2.051E-13	1.036E+10	   20.0013	   21.3572	   22.8956	   -0.6702	
 -325.0000	1.962E-13	1.360E+10	   20.0013	   21.3537	   22.8941	   -0.6741	
 -330.0000	2.024E-13	1.481E+10	   20.0013	   21.3583	   22.8975	   -0.6681	
 -335.0000	2.001E-13	9.277E+9	   20.0013	   21.3590	   22.8982	   -0.6672	
 -340.0000	1.947E-13	1.057E+10	   20.0013	   21.3590	   22.8963	   -0.6683	
 -345.0000	1.981E-13	1.422E+10	   20.0013	   21.3591	   22.8890	   -0.6726	
 -350.0000	1.984E-13	1.091E+10	   20.0013	   21.3585	   22.9070	   -0.6623	
 -355.0000	1.996E-13	1.481E+10	   20.0013	   21.3585	   22.9013	   -0.6657	
 -360.0000	1.989E-13	9.475E+9	   19.9987	   21.3582	   22.9105	   -0.6605	
 -365.0000	2.008E-13	1.756E+10	   19.9987	   21.3569	   22.9083	   -0.6629	
 -370.0000	2.016E-13	1.315E+10	   19.9987	   21.3583	   22.9083	   -0.6617	
 -375.0000	1.952E-13	1.264E+10	   19.9987	   21.3551	   22.9035	   -0.6672	
 -380.0000	1.990E-13	1.445E+10	   19.9987	   21.3586	   22.8997	   -0.6665	
 -385.0000	1.991E-13	9.967E+9	   19.9987	   21.3624	   22.9137	   -0.6550	
 -390.0000	1.963E-13	9.407E+9	   19.9987	   21.3608	   22.9111	   -0.6580	
 -395.0000	1.968E-13	1.654E+10	   19.9987	   21.3632	   22.9108	   -0.6561	
 -400.0000	2.002E-13	1.421E+10	   19.9987	   21.3583	   22.9096	   -0.6609	
 -410.0000	1.968E-13	8.975E+9	   19.9987	   21.3615	   22.9156	   -0.6547	
 -420.0000	1.990E-13	1.926E+10	   19.9987	   21.3578	   22.9089	   -0.6618	
 -430.0000	2.009E-13	2.196E+10	   19.9987	   21.3578	   22.9083	   -0.6622	
 -440.0000	1.968E-13	9.678E+9	   19.9987	   21.3630	   22.9127	   -0.6551	
 -450.0000	1.975E-13	1.574E+10	   19.9987	   21.3661	   22.9099	   -0.6542	
 -460.0000	1.942E-13	1.254E+10	   19.9987	   21.3607	   22.9067	   -0.6606	
 -470.0000	1.918E-13	1.024E+10	   19.9987	   21.3693	   22.9058	   -0.6540	
 -480.0000	1.915E-13	9.794E+9	   19.9987	   21.3613	   22.9001	   -0.6641	
 -490.0000	1.936E-13	1.957E+10	   20.0013	   21.3613	   22.9007	   -0.6637	
 -500.0000	1.934E-13	1.342E+10	   20.0013	   21.3639	   22.9092	   -0.6564	
 -510.0000	1.936E-13	1.123E+10	   20.0013	   21.3634	   22.8975	   -0.6639	
 -520.0000	1.925E-13	1.253E+10	   20.0013	   21.3610	   22.9004	   -0.6642	
 -530.0000	1.981E-13	9.063E+9	   20.0013	   21.3593	   22.9020	   -0.6647	
 -540.0000	1.932E-13	9.816E+9	   20.0013	   21.3655	   22.9051	   -0.6576	
 -550.0000	1.936E-13	2.345E+10	   20.0013	   21.3641	   22.8969	   -0.6636	
 -560.0000	1.928E-13	8.743E+9	   20.0039	   21.3637	   22.8950	   -0.6651	
 -570.0000	1.927E-13	1.914E+10	   20.0013	   21.3649	   22.9016	   -0.6601	
 -580.0000	1.944E-13	1.790E+10	   20.0013	   21.3644	   22.9111	   -0.6549	
 -590.0000	1.928E-13	1.140E+10	   19.9987	   21.3658	   22.9235	   -0.6463	
 -600.0000	1.938E-13	1.659E+10	   20.0013	   21.3630	   22.9194	   -0.6511	
