GCD Test
Bias: 5000.000000
IV_34340_039_PSS_HM_XX_DIODEQUARTER
Date/Time: 4/22/2021 6:19:15 PM
Sensor Name: DIODEQUARTER
Type: P
Annealing Status: Unirradiated
Environment: RT
Tester: Andrew Kent

Time Delay per Ramp Step (s): 0.500

CV Time Delay per Measurement (s) :0.500

AC Voltage (V): 0.500

Current Number of measurements per voltage: 1.000

IV Time Delay per Measurement (s) :0.000


BiasVoltage	Bias Current_Avg	Bias Current_0	Temperature	Air_Temp	Humidity	Dewpoint	
   -5.0000	-5.794007E-11	-5.794007E-11	   23.8179	   23.7457	   14.0563	   -5.2693	
  -10.0000	-5.964549E-11	-5.964549E-11	   23.8179	   23.7486	   14.0683	   -5.2557	
  -15.0000	-6.146053E-11	-6.146053E-11	   23.8179	   23.7486	   14.0683	   -5.2557	
  -20.0000	-6.303866E-11	-6.303866E-11	   23.8179	   23.7456	   14.0800	   -5.2471	
  -25.0000	-6.453569E-11	-6.453569E-11	   23.8179	   23.7456	   14.0800	   -5.2471	
  -30.0000	-6.683534E-11	-6.683534E-11	   23.8179	   23.7456	   14.0886	   -5.2392	
  -35.0000	-7.014233E-11	-7.014233E-11	   23.8154	   23.7400	   14.0863	   -5.2456	
  -40.0000	-7.155973E-11	-7.155973E-11	   23.8154	   23.7400	   14.0863	   -5.2456	
  -45.0000	-7.548150E-11	-7.548150E-11	   23.8154	   23.7401	   14.0781	   -5.2533	
  -50.0000	-8.068825E-11	-8.068825E-11	   23.8154	   23.7401	   14.0781	   -5.2533	
  -55.0000	-8.477011E-11	-8.477011E-11	   23.8154	   23.7383	   14.0765	   -5.2562	
  -60.0000	-8.683940E-11	-8.683940E-11	   23.8179	   23.7389	   14.0708	   -5.2610	
  -65.0000	-8.819570E-11	-8.819570E-11	   23.8179	   23.7389	   14.0708	   -5.2610	
  -70.0000	-9.144911E-11	-9.144911E-11	   23.8154	   23.7341	   14.0756	   -5.2603	
  -75.0000	-9.217570E-11	-9.217570E-11	   23.8154	   23.7341	   14.0756	   -5.2603	
  -80.0000	-9.271168E-11	-9.271168E-11	   23.8128	   23.7332	   14.0892	   -5.2484	
  -85.0000	-9.383815E-11	-9.383815E-11	   23.8154	   23.7309	   14.0860	   -5.2532	
  -90.0000	-9.431705E-11	-9.431705E-11	   23.8154	   23.7309	   14.0860	   -5.2532	
  -95.0000	-9.429590E-11	-9.429590E-11	   23.8154	   23.7309	   14.0958	   -5.2440	
 -100.0000	-9.514779E-11	-9.514779E-11	   23.8154	   23.7309	   14.0958	   -5.2440	
 -105.0000	-9.540283E-11	-9.540283E-11	   23.8128	   23.7287	   14.0980	   -5.2437	
 -110.0000	-9.494067E-11	-9.494067E-11	   23.8128	   23.7287	   14.0980	   -5.2437	
 -115.0000	-9.536539E-11	-9.536539E-11	   23.8128	   23.7247	   14.1091	   -5.2365	
 -120.0000	-9.642386E-11	-9.642386E-11	   23.8128	   23.7245	   14.1135	   -5.2326	
 -125.0000	-9.641060E-11	-9.641060E-11	   23.8128	   23.7245	   14.1135	   -5.2326	
 -130.0000	-9.580518E-11	-9.580518E-11	   23.8128	   23.7230	   14.1113	   -5.2358	
 -135.0000	-9.560027E-11	-9.560027E-11	   23.8128	   23.7230	   14.1113	   -5.2358	
 -140.0000	-9.662470E-11	-9.662470E-11	   23.8128	   23.7185	   14.1164	   -5.2346	
 -145.0000	-9.677419E-11	-9.677419E-11	   23.8128	   23.7185	   14.1164	   -5.2346	
 -150.0000	-9.655280E-11	-9.655280E-11	   23.8128	   23.7254	   14.1218	   -5.2242	
 -155.0000	-9.665930E-11	-9.665930E-11	   23.8128	   23.7254	   14.1218	   -5.2242	
 -160.0000	-9.750636E-11	-9.750636E-11	   23.8102	   23.7201	   14.1252	   -5.2251	
 -165.0000	-9.715291E-11	-9.715291E-11	   23.8128	   23.7170	   14.1328	   -5.2205	
 -170.0000	-9.762840E-11	-9.762840E-11	   23.8128	   23.7170	   14.1328	   -5.2205	
 -175.0000	-9.709061E-11	-9.709061E-11	   23.8102	   23.7181	   14.1281	   -5.2241	
 -180.0000	-9.764997E-11	-9.764997E-11	   23.8102	   23.7181	   14.1281	   -5.2241	
 -185.0000	-9.732895E-11	-9.732895E-11	   23.8076	   23.7135	   14.1347	   -5.2215	
 -190.0000	-9.792130E-11	-9.792130E-11	   23.8076	   23.7135	   14.1347	   -5.2215	
 -195.0000	-9.812481E-11	-9.812481E-11	   23.8076	   23.7170	   14.1360	   -5.2176	
 -200.0000	-9.879360E-11	-9.879360E-11	   23.8076	   23.7167	   14.1401	   -5.2140	
 -205.0000	-9.856222E-11	-9.856222E-11	   23.8076	   23.7167	   14.1401	   -5.2140	
 -210.0000	-9.824766E-11	-9.824766E-11	   23.8076	   23.7167	   14.1401	   -5.2140	
 -215.0000	-9.901381E-11	-9.901381E-11	   23.8102	   23.7112	   14.1344	   -5.2236	
 -220.0000	-9.931145E-11	-9.931145E-11	   23.8076	   23.7142	   14.1490	   -5.2077	
 -225.0000	-9.922793E-11	-9.922793E-11	   23.8076	   23.7142	   14.1490	   -5.2077	
 -230.0000	-9.906986E-11	-9.906986E-11	   23.8076	   23.7097	   14.1534	   -5.2072	
 -235.0000	-9.991299E-11	-9.991299E-11	   23.8076	   23.7097	   14.1534	   -5.2072	
 -240.0000	-9.997495E-11	-9.997495E-11	   23.8076	   23.7100	   14.1543	   -5.2060	
 -245.0000	-1.000421E-10	-1.000421E-10	   23.8076	   23.7100	   14.1543	   -5.2060	
 -250.0000	-1.002139E-10	-1.002139E-10	   23.8076	   23.7120	   14.1543	   -5.2045	
 -255.0000	-1.009674E-10	-1.009674E-10	   23.8076	   23.7120	   14.1543	   -5.2045	
 -260.0000	-1.009193E-10	-1.009193E-10	   23.8050	   23.7072	   14.1635	   -5.1998	
 -265.0000	-1.005956E-10	-1.005956E-10	   23.8076	   23.7088	   14.1626	   -5.1994	
 -270.0000	-1.008299E-10	-1.008299E-10	   23.8076	   23.7088	   14.1626	   -5.1994	
 -275.0000	-1.011326E-10	-1.011326E-10	   23.8050	   23.7066	   14.1711	   -5.1932	
 -280.0000	-1.010672E-10	-1.010672E-10	   23.8050	   23.7066	   14.1711	   -5.1932	
 -285.0000	-1.010986E-10	-1.010986E-10	   23.8050	   23.7053	   14.1641	   -5.2006	
 -290.0000	-1.013583E-10	-1.013583E-10	   23.8050	   23.7053	   14.1641	   -5.2006	
 -295.0000	-1.011684E-10	-1.011684E-10	   23.8025	   23.7052	   14.1708	   -5.1945	
 -300.0000	-1.020725E-10	-1.020725E-10	   23.8025	   23.7052	   14.1708	   -5.1945	
 -305.0000	-1.021265E-10	-1.021265E-10	   23.8050	   23.7035	   14.1692	   -5.1974	
 -310.0000	-1.020157E-10	-1.020157E-10	   23.8050	   23.7035	   14.1692	   -5.1974	
 -315.0000	-1.036864E-10	-1.036864E-10	   23.8050	   23.7062	   14.1733	   -5.1914	
 -320.0000	-1.024339E-10	-1.024339E-10	   23.8025	   23.7063	   14.1714	   -5.1931	
 -325.0000	-1.031711E-10	-1.031711E-10	   23.8025	   23.7063	   14.1714	   -5.1931	
 -330.0000	-1.027180E-10	-1.027180E-10	   23.8025	   23.7058	   14.1603	   -5.2038	
 -335.0000	-1.031925E-10	-1.031925E-10	   23.8025	   23.7058	   14.1603	   -5.2038	
 -340.0000	-1.030069E-10	-1.030069E-10	   23.8025	   23.7078	   14.1872	   -5.1772	
 -345.0000	-1.032039E-10	-1.032039E-10	   23.8025	   23.7061	   14.1777	   -5.1874	
 -350.0000	-1.031112E-10	-1.031112E-10	   23.8025	   23.7061	   14.1777	   -5.1874	
 -355.0000	-1.028847E-10	-1.028847E-10	   23.8025	   23.7041	   14.1667	   -5.1992	
 -360.0000	-1.035203E-10	-1.035203E-10	   23.8025	   23.7041	   14.1667	   -5.1992	
 -365.0000	-1.043777E-10	-1.043777E-10	   23.8025	   23.7038	   14.1698	   -5.1965	
 -370.0000	-1.042012E-10	-1.042012E-10	   23.7999	   23.7053	   14.1746	   -5.1910	
 -375.0000	-1.042206E-10	-1.042206E-10	   23.7999	   23.7053	   14.1746	   -5.1910	
 -380.0000	-1.043698E-10	-1.043698E-10	   23.7999	   23.7026	   14.1913	   -5.1775	
 -385.0000	-1.051811E-10	-1.051811E-10	   23.7999	   23.7026	   14.1913	   -5.1775	
 -390.0000	-1.037774E-10	-1.037774E-10	   23.8025	   23.7044	   14.1733	   -5.1928	
 -395.0000	-1.037534E-10	-1.037534E-10	   23.8025	   23.7044	   14.1733	   -5.1928	
 -400.0000	-1.040021E-10	-1.040021E-10	   23.7999	   23.6981	   14.1898	   -5.1826	
 -410.0000	-1.041416E-10	-1.041416E-10	   23.7999	   23.6966	   14.1825	   -5.1905	
 -420.0000	-1.043478E-10	-1.043478E-10	   23.7999	   23.6966	   14.1825	   -5.1905	
 -430.0000	-1.042474E-10	-1.042474E-10	   23.7999	   23.6966	   14.1812	   -5.1917	
 -440.0000	-1.048704E-10	-1.048704E-10	   23.7999	   23.6966	   14.1812	   -5.1917	
 -450.0000	-1.051455E-10	-1.051455E-10	   23.7973	   23.7001	   14.1894	   -5.1812	
 -460.0000	-1.053023E-10	-1.053023E-10	   23.7999	   23.7001	   14.1787	   -5.1812	
 -470.0000	-1.057126E-10	-1.057126E-10	   23.7999	   23.6975	   14.1787	   -5.1933	
 -480.0000	-1.057326E-10	-1.057326E-10	   23.7973	   23.7008	   14.1961	   -5.1745	
 -490.0000	-1.059579E-10	-1.059579E-10	   23.7973	   23.7008	   14.1961	   -5.1745	
 -500.0000	-1.055535E-10	-1.055535E-10	   23.7973	   23.6981	   14.1983	   -5.1747	
 -510.0000	-1.064429E-10	-1.064429E-10	   23.7973	   23.6981	   14.1983	   -5.1747	
 -520.0000	-1.066554E-10	-1.066554E-10	   23.7973	   23.6960	   14.1831	   -5.1904	
 -530.0000	-1.068894E-10	-1.068894E-10	   23.7973	   23.6960	   14.1831	   -5.1904	
 -540.0000	-1.067745E-10	-1.067745E-10	   23.7947	   23.6967	   14.1980	   -5.1761	
 -550.0000	-1.072414E-10	-1.072414E-10	   23.7947	   23.6967	   14.2059	   -5.1688	
 -560.0000	-1.069495E-10	-1.069495E-10	   23.7947	   23.6967	   14.2059	   -5.1688	
 -570.0000	-1.078626E-10	-1.078626E-10	   23.7973	   23.6936	   14.1999	   -5.1768	
 -580.0000	-1.076440E-10	-1.076440E-10	   23.7973	   23.6936	   14.1999	   -5.1768	
 -590.0000	-1.078942E-10	-1.078942E-10	   23.7947	   23.6949	   14.1961	   -5.1792	
 -600.0000	-1.078785E-10	-1.078785E-10	   23.7947	   23.6954	   14.1996	   -5.1756	
 -610.0000	-1.084032E-10	-1.084032E-10	   23.7947	   23.6954	   14.1996	   -5.1756	
 -620.0000	-1.086357E-10	-1.086357E-10	   23.7947	   23.6965	   14.2097	   -5.1653	
 -630.0000	-1.087978E-10	-1.087978E-10	   23.7947	   23.6965	   14.2097	   -5.1653	
 -640.0000	-1.088330E-10	-1.088330E-10	   23.7947	   23.6933	   14.2018	   -5.1752	
 -650.0000	-1.089638E-10	-1.089638E-10	   23.7947	   23.6912	   14.2018	   -5.1769	
 -660.0000	-1.095405E-10	-1.095405E-10	   23.7947	   23.6912	   14.2018	   -5.1769	
 -670.0000	-1.096835E-10	-1.096835E-10	   23.7947	   23.6957	   14.2084	   -5.1672	
 -680.0000	-1.100895E-10	-1.100895E-10	   23.7947	   23.6957	   14.2084	   -5.1672	
 -690.0000	-1.102802E-10	-1.102802E-10	   23.7922	   23.6917	   14.2097	   -5.1692	
 -700.0000	-1.116562E-10	-1.116562E-10	   23.7922	   23.6884	   14.2084	   -5.1729	
 -710.0000	-1.111445E-10	-1.111445E-10	   23.7922	   23.6884	   14.2084	   -5.1729	
 -720.0000	-1.109141E-10	-1.109141E-10	   23.7922	   23.6884	   14.2226	   -5.1597	
 -730.0000	-1.115302E-10	-1.115302E-10	   23.7922	   23.6884	   14.2226	   -5.1597	
 -740.0000	-1.124870E-10	-1.124870E-10	   23.7922	   23.6931	   14.2195	   -5.1590	
 -750.0000	-1.119897E-10	-1.119897E-10	   23.7922	   23.6931	   14.2195	   -5.1590	
 -760.0000	-1.133052E-10	-1.133052E-10	   23.7922	   23.6939	   14.2220	   -5.1560	
 -770.0000	-1.127041E-10	-1.127041E-10	   23.7922	   23.6904	   14.2182	   -5.1623	
 -780.0000	-1.139465E-10	-1.139465E-10	   23.7922	   23.6904	   14.2182	   -5.1623	
 -790.0000	-1.135825E-10	-1.135825E-10	   23.7896	   23.6910	   14.2226	   -5.1578	
 -800.0000	-1.144425E-10	-1.144425E-10	   23.7896	   23.6910	   14.2226	   -5.1578	
 -810.0000	-1.146515E-10	-1.146515E-10	   23.7896	   23.6897	   14.2147	   -5.1660	
 -820.0000	-1.148810E-10	-1.148810E-10	   23.7896	   23.6897	   14.2147	   -5.1660	
 -830.0000	-1.157490E-10	-1.157490E-10	   23.7896	   23.6867	   14.2185	   -5.1649	
 -840.0000	-1.169792E-10	-1.169792E-10	   23.7896	   23.6878	   14.2198	   -5.1629	
 -850.0000	-1.173764E-10	-1.173764E-10	   23.7896	   23.6878	   14.2198	   -5.1629	
 -860.0000	-1.179314E-10	-1.179314E-10	   23.7896	   23.6887	   14.2192	   -5.1628	
 -870.0000	-1.186583E-10	-1.186583E-10	   23.7896	   23.6887	   14.2192	   -5.1628	
 -880.0000	-1.192272E-10	-1.192272E-10	   23.7896	   23.6860	   14.2163	   -5.1675	
 -890.0000	-1.200598E-10	-1.200598E-10	   23.7896	   23.6860	   14.2163	   -5.1675	
 -900.0000	-1.205028E-10	-1.205028E-10	   23.7870	   23.6885	   14.2220	   -5.1603	
 -910.0000	-1.206915E-10	-1.206915E-10	   23.7896	   23.6868	   14.2236	   -5.1602	
 -920.0000	-1.233623E-10	-1.233623E-10	   23.7896	   23.6868	   14.2236	   -5.1602	
 -930.0000	-1.227724E-10	-1.227724E-10	   23.7896	   23.6873	   14.2182	   -5.1648	
 -940.0000	-1.242517E-10	-1.242517E-10	   23.7896	   23.6873	   14.2182	   -5.1648	
 -950.0000	-1.253838E-10	-1.253838E-10	   23.7896	   23.6857	   14.2192	   -5.1651	
 -960.0000	-1.290614E-10	-1.290614E-10	   23.7896	   23.6879	   14.2245	   -5.1584	
 -970.0000	-1.284212E-10	-1.284212E-10	   23.7896	   23.6879	   14.2245	   -5.1584	
 -980.0000	-1.290818E-10	-1.290818E-10	   23.7870	   23.6806	   14.2343	   -5.1551	
 -990.0000	-1.311576E-10	-1.311576E-10	   23.7870	   23.6806	   14.2343	   -5.1551	
-1000.0000	-1.319246E-10	-1.319246E-10	   23.7870	   23.6843	   14.2318	   -5.1545	
