34330_048_2-S_HM_XX_Irrad_1100min
Date/Time: 11/17/2021 9:49:02 AM
Sensor Name: 34330_048_2-S_HM_XX_Irrad_1100min
Type: P
Annealing Status: 1100 min
Environment: -20.0C
Tester: Eric Spencer
Notes: After Alibava

Time Delay per Ramp Step (s): 1.000

CV Time Delay per Measurement (s) :0.500

AC Voltage (V): 0.500

Current Number of measurements per voltage: 4.000

IV Time Delay per Measurement (s) :0.500


BiasVoltage	LCR_Cp_freq1	LCR_G_freq1	Temperature	Air_Temp	Humidity	Dewpoint	
  -10.0000	2.146E-10	1.383E-6	  -20.0000	   26.7399	    1.2451	    0.0000	
  -20.0000	2.016E-10	1.007E-6	  -20.0000	   26.7399	    1.2451	    0.0000	
  -30.0000	1.866E-10	7.970E-7	  -20.0000	   26.7399	    1.2451	    0.0000	
  -40.0000	1.744E-10	6.613E-7	  -20.0000	   26.7399	    1.2451	    0.0000	
  -50.0000	1.635E-10	5.611E-7	  -20.0000	   26.7399	    1.2451	    0.0000	
  -60.0000	1.548E-10	4.919E-7	  -20.0000	   26.7399	    1.2451	    0.0000	
  -70.0000	1.467E-10	4.357E-7	  -20.0000	   26.7399	    1.2451	    0.0000	
  -80.0000	1.404E-10	3.904E-7	  -20.0000	   26.7399	    1.2451	    0.0000	
  -90.0000	1.351E-10	3.561E-7	  -20.0000	   26.7399	    1.2451	    0.0000	
 -100.0000	1.295E-10	3.292E-7	  -20.0000	   26.7399	    1.2451	    0.0000	
 -110.0000	1.255E-10	3.023E-7	  -20.0000	   26.7399	    1.2451	    0.0000	
 -120.0000	1.218E-10	2.848E-7	  -20.0000	   26.7399	    1.2451	    0.0000	
 -130.0000	1.175E-10	2.683E-7	  -20.0000	   26.7399	    1.2451	    0.0000	
 -140.0000	1.139E-10	2.522E-7	  -20.0000	   26.7399	    1.2451	    0.0000	
 -150.0000	1.107E-10	2.408E-7	  -20.0000	   26.7399	    1.2451	    0.0000	
 -160.0000	1.081E-10	2.276E-7	  -20.0000	   26.7399	    1.2451	    0.0000	
 -170.0000	1.048E-10	2.209E-7	  -20.0000	   26.7399	    1.2451	    0.0000	
 -180.0000	1.026E-10	2.009E-7	  -20.0000	   26.7399	    1.2451	    0.0000	
 -190.0000	9.935E-11	1.938E-7	  -20.0000	   26.7399	    1.2451	    0.0000	
 -200.0000	9.806E-11	1.866E-7	  -20.0000	   26.7399	    1.2451	    0.0000	
 -210.0000	9.614E-11	1.795E-7	  -20.0000	   26.7399	    1.2451	    0.0000	
 -220.0000	9.398E-11	1.719E-7	  -20.0000	   26.7399	    1.2451	    0.0000	
 -230.0000	9.235E-11	1.581E-7	  -20.0000	   26.7399	    1.2451	    0.0000	
 -240.0000	9.070E-11	1.551E-7	  -20.0000	   26.7399	    1.2451	    0.0000	
 -250.0000	8.927E-11	1.461E-7	  -20.0000	   26.7399	    1.2451	    0.0000	
 -260.0000	8.748E-11	1.391E-7	  -20.0000	   26.7399	    1.2451	    0.0000	
 -270.0000	8.640E-11	1.359E-7	  -20.0000	   26.7399	    1.2451	    0.0000	
 -280.0000	8.504E-11	1.254E-7	  -20.0000	   26.7399	    1.2451	    0.0000	
 -290.0000	8.361E-11	1.307E-7	  -20.0000	   26.7399	    1.2451	    0.0000	
 -300.0000	8.269E-11	1.292E-7	  -20.0000	   26.7399	    1.2451	    0.0000	
 -310.0000	8.095E-11	1.152E-7	  -20.0000	   26.7399	    1.2451	    0.0000	
 -320.0000	8.067E-11	1.092E-7	  -20.0000	   26.7399	    1.2451	    0.0000	
 -330.0000	7.906E-11	1.082E-7	  -20.0000	   26.7399	    1.2451	    0.0000	
 -340.0000	7.868E-11	1.093E-7	  -20.0000	   26.7399	    1.2451	    0.0000	
 -350.0000	7.810E-11	1.013E-7	  -20.0000	   26.7399	    1.2451	    0.0000	
 -360.0000	7.670E-11	9.967E-8	  -20.0000	   26.7399	    1.2451	    0.0000	
 -370.0000	7.389E-11	1.052E-7	  -20.0000	   26.7399	    1.2451	    0.0000	
 -380.0000	7.425E-11	9.643E-8	  -20.0000	   26.7399	    1.2451	    0.0000	
 -390.0000	7.131E-11	9.066E-8	  -20.0000	   26.7399	    1.2451	    0.0000	
 -400.0000	7.268E-11	8.267E-8	  -20.0000	   26.7399	    1.2451	    0.0000	
 -410.0000	7.207E-11	8.121E-8	  -20.0000	   26.7399	    1.2451	    0.0000	
 -420.0000	6.884E-11	8.060E-8	  -20.0000	   26.7399	    1.2451	    0.0000	
 -430.0000	6.961E-11	8.016E-8	  -20.0000	   26.7399	    1.2451	    0.0000	
 -440.0000	6.759E-11	8.270E-8	  -20.0000	   26.7399	    1.2451	    0.0000	
 -450.0000	6.758E-11	8.042E-8	  -20.0000	   26.7399	    1.2451	    0.0000	
 -460.0000	6.590E-11	8.069E-8	  -20.0000	   26.7399	    1.2451	    0.0000	
 -470.0000	6.720E-11	6.084E-8	  -20.0000	   26.7399	    1.2451	    0.0000	
 -480.0000	6.623E-11	6.447E-8	  -20.0000	   26.7399	    1.2451	    0.0000	
 -490.0000	6.558E-11	8.184E-8	  -20.0000	   26.7399	    1.2451	    0.0000	
 -500.0000	6.350E-11	6.585E-8	  -20.0000	   26.7399	    1.2451	    0.0000	
 -510.0000	6.291E-11	5.909E-8	  -20.0000	   26.7399	    1.2451	    0.0000	
 -520.0000	6.252E-11	7.762E-8	  -20.0000	   26.7399	    1.2451	    0.0000	
 -530.0000	5.901E-11	6.078E-8	  -20.0000	   26.7399	    1.2451	    0.0000	
 -540.0000	6.130E-11	5.406E-8	  -20.0000	   26.7399	    1.2451	    0.0000	
 -550.0000	6.062E-11	5.976E-8	  -20.0000	   26.7399	    1.2451	    0.0000	
 -560.0000	6.031E-11	4.736E-8	  -20.0000	   26.7399	    1.2451	    0.0000	
 -570.0000	5.852E-11	5.166E-8	  -20.0000	   26.7399	    1.2451	    0.0000	
 -580.0000	5.907E-11	5.368E-8	  -20.0000	   26.7399	    1.2451	    0.0000	
 -590.0000	5.913E-11	3.409E-8	  -20.0000	   26.7399	    1.2451	    0.0000	
 -600.0000	5.810E-11	4.099E-8	  -20.0000	   26.7399	    1.2451	    0.0000	
 -610.0000	5.705E-11	4.669E-8	  -20.0000	   26.7399	    1.2451	    0.0000	
 -620.0000	5.697E-11	4.187E-8	  -20.0000	   26.7399	    1.2451	    0.0000	
 -630.0000	5.607E-11	4.330E-8	  -20.0000	   26.7399	    1.2451	    0.0000	
 -640.0000	5.677E-11	3.270E-8	  -20.0000	   26.7399	    1.2451	    0.0000	
 -650.0000	5.563E-11	3.603E-8	  -20.0000	   26.7399	    1.2451	    0.0000	
 -660.0000	5.299E-11	4.235E-8	  -20.0000	   26.7399	    1.2451	    0.0000	
 -670.0000	5.288E-11	3.724E-8	  -20.0000	   26.7399	    1.2451	    0.0000	
 -680.0000	5.226E-11	3.788E-8	  -20.0000	   26.7399	    1.2451	    0.0000	
 -690.0000	5.449E-11	2.681E-8	  -20.0000	   26.7399	    1.2451	    0.0000	
 -700.0000	5.392E-11	2.693E-8	  -20.0000	   26.7399	    1.2451	    0.0000	
 -710.0000	5.436E-11	3.247E-8	  -20.0000	   26.7399	    1.2451	    0.0000	
 -720.0000	5.137E-11	3.185E-8	  -20.0000	   26.7399	    1.2451	    0.0000	
 -730.0000	5.236E-11	2.052E-8	  -20.0000	   26.7399	    1.2451	    0.0000	
 -740.0000	5.166E-11	3.325E-8	  -20.0000	   26.7399	    1.2451	    0.0000	
 -750.0000	5.129E-11	2.609E-8	  -20.0000	   26.7399	    1.2451	    0.0000	
 -760.0000	5.051E-11	2.463E-8	  -20.0000	   26.7399	    1.2451	    0.0000	
 -770.0000	5.212E-11	1.916E-8	  -20.0000	   26.7399	    1.2451	    0.0000	
 -780.0000	5.293E-11	1.182E-8	  -20.0000	   26.7399	    1.2451	    0.0000	
 -790.0000	4.849E-11	3.280E-8	  -20.0000	   26.7399	    1.2451	    0.0000	
 -800.0000	5.069E-11	3.294E-8	  -20.0000	   26.7399	    1.2451	    0.0000	
 -810.0000	5.204E-11	1.838E-8	  -20.0000	   26.7399	    1.2451	    0.0000	
 -820.0000	4.888E-11	3.275E-8	  -20.0000	   26.7399	    1.2451	    0.0000	
 -830.0000	5.253E-11	1.191E-8	  -20.0000	   26.7399	    1.2451	    0.0000	
 -840.0000	5.043E-11	2.593E-8	  -20.0000	   26.7399	    1.2451	    0.0000	
 -850.0000	5.276E-11	1.045E-8	  -20.0000	   26.7399	    1.2451	    0.0000	
 -860.0000	5.035E-11	4.253E-8	  -20.0000	   26.7399	    1.2451	    0.0000	
 -870.0000	5.216E-11	1.445E-8	  -20.0000	   26.7399	    1.2451	    0.0000	
 -880.0000	5.165E-11	3.596E-8	  -20.0000	   26.7399	    1.2451	    0.0000	
 -890.0000	4.813E-11	2.907E-8	  -20.0000	   26.7399	    1.2451	    0.0000	
 -900.0000	5.040E-11	2.173E-8	  -20.0000	   26.7399	    1.2451	    0.0000	
 -910.0000	4.855E-11	2.173E-8	  -20.0000	   26.7399	    1.2451	    0.0000	
 -920.0000	4.966E-11	2.695E-8	  -20.0000	   26.7399	    1.2451	    0.0000	
 -930.0000	4.961E-11	3.020E-8	  -20.0000	   26.7399	    1.2451	    0.0000	
 -940.0000	5.138E-11	3.402E-8	  -20.0000	   26.7399	    1.2451	    0.0000	
 -950.0000	5.217E-11	1.303E-8	  -20.0000	   26.7399	    1.2451	    0.0000	
 -960.0000	5.062E-11	2.836E-8	  -20.0000	   26.7399	    1.2451	    0.0000	
 -970.0000	4.901E-11	1.746E-8	  -20.0000	   26.7399	    1.2451	    0.0000	
 -980.0000	5.258E-11	2.543E-8	  -20.0000	   26.7399	    1.2451	    0.0000	
 -990.0000	5.277E-11	1.610E-8	  -20.0000	   26.7399	    1.2451	    0.0000	
-1000.0000	5.301E-11	1.069E-8	  -20.0000	   26.7399	    1.2451	    0.0000	
