GCD Test
Bias: 5000.000000
IV_34253_049_PSS_HM_XX_DIODEHALFPSTOP
Date/Time: 4/26/2021 1:21:15 PM
Sensor Name: DIODEHALFPSTOP
Type: P
Annealing Status: Unirradiated
Environment: RT
Tester: Andrew Kent

Time Delay per Ramp Step (s): 0.500

CV Time Delay per Measurement (s) :0.500

AC Voltage (V): 0.500

Current Number of measurements per voltage: 1.000

IV Time Delay per Measurement (s) :0.000


BiasVoltage	Bias Current_Avg	Bias Current_0	Temperature	Air_Temp	Humidity	Dewpoint	
   -5.0000	-1.252007E-10	-1.252007E-10	   22.9909	   23.3938	   18.8536	   -1.6298	
  -10.0000	-1.268805E-10	-1.268805E-10	   22.9909	   23.3900	   18.8602	   -1.6282	
  -15.0000	-1.348976E-10	-1.348976E-10	   22.9909	   23.3900	   18.8602	   -1.6282	
  -20.0000	-1.369705E-10	-1.369705E-10	   22.9909	   23.3892	   18.8612	   -1.6281	
  -25.0000	-1.379204E-10	-1.379204E-10	   22.9909	   23.3892	   18.8612	   -1.6281	
  -30.0000	-1.397697E-10	-1.397697E-10	   22.9909	   23.3895	   18.8770	   -1.6165	
  -35.0000	-1.410934E-10	-1.410934E-10	   22.9909	   23.3895	   18.8770	   -1.6165	
  -40.0000	-1.422633E-10	-1.422633E-10	   22.9909	   23.3852	   18.8767	   -1.6203	
  -45.0000	-1.438834E-10	-1.438834E-10	   22.9909	   23.3840	   18.8833	   -1.6164	
  -50.0000	-1.443635E-10	-1.443635E-10	   22.9909	   23.3840	   18.8833	   -1.6164	
  -55.0000	-1.459358E-10	-1.459358E-10	   22.9909	   23.3840	   18.8849	   -1.6153	
  -60.0000	-1.476569E-10	-1.476569E-10	   22.9909	   23.3840	   18.8849	   -1.6153	
  -65.0000	-1.492087E-10	-1.492087E-10	   22.9909	   23.3845	   18.9020	   -1.6026	
  -70.0000	-1.504367E-10	-1.504367E-10	   22.9909	   23.3845	   18.9020	   -1.6026	
  -75.0000	-1.521172E-10	-1.521172E-10	   22.9909	   23.3784	   18.9092	   -1.6024	
  -80.0000	-1.538765E-10	-1.538765E-10	   22.9909	   23.3784	   18.9092	   -1.6024	
  -85.0000	-1.561658E-10	-1.561658E-10	   22.9909	   23.3813	   18.9168	   -1.5946	
  -90.0000	-1.588583E-10	-1.588583E-10	   22.9935	   23.3800	   18.9231	   -1.5911	
  -95.0000	-1.621640E-10	-1.621640E-10	   22.9935	   23.3800	   18.9231	   -1.5911	
 -100.0000	-1.660016E-10	-1.660016E-10	   22.9909	   23.3800	   18.9254	   -1.5895	
 -105.0000	-1.697578E-10	-1.697578E-10	   22.9909	   23.3800	   18.9254	   -1.5895	
 -110.0000	-1.731614E-10	-1.731614E-10	   22.9909	   23.3829	   18.9304	   -1.5835	
 -115.0000	-1.765384E-10	-1.765384E-10	   22.9909	   23.3804	   18.9371	   -1.5808	
 -120.0000	-1.793812E-10	-1.793812E-10	   22.9909	   23.3804	   18.9371	   -1.5808	
 -125.0000	-1.812241E-10	-1.812241E-10	   22.9909	   23.3762	   18.9437	   -1.5795	
 -130.0000	-1.833663E-10	-1.833663E-10	   22.9909	   23.3762	   18.9437	   -1.5795	
 -135.0000	-1.837970E-10	-1.837970E-10	   22.9909	   23.3816	   18.9583	   -1.5646	
 -140.0000	-1.845138E-10	-1.845138E-10	   22.9909	   23.3830	   18.9655	   -1.5583	
 -145.0000	-1.856684E-10	-1.856684E-10	   22.9909	   23.3830	   18.9655	   -1.5583	
 -150.0000	-1.860833E-10	-1.860833E-10	   22.9935	   23.3811	   18.9611	   -1.5630	
 -155.0000	-1.868774E-10	-1.868774E-10	   22.9935	   23.3811	   18.9611	   -1.5630	
 -160.0000	-1.868173E-10	-1.868173E-10	   22.9909	   23.3813	   18.9725	   -1.5547	
 -165.0000	-1.868768E-10	-1.868768E-10	   22.9909	   23.3813	   18.9725	   -1.5547	
 -170.0000	-1.876307E-10	-1.876307E-10	   22.9909	   23.3776	   18.9731	   -1.5573	
 -175.0000	-1.882573E-10	-1.882573E-10	   22.9909	   23.3776	   18.9731	   -1.5573	
 -180.0000	-1.890157E-10	-1.890157E-10	   22.9909	   23.3777	   18.9908	   -1.5445	
 -185.0000	-1.891787E-10	-1.891787E-10	   22.9935	   23.3777	   18.9851	   -1.5486	
 -190.0000	-1.891045E-10	-1.891045E-10	   22.9935	   23.3777	   18.9851	   -1.5486	
 -195.0000	-1.898723E-10	-1.898723E-10	   22.9909	   23.3775	   18.9832	   -1.5501	
 -200.0000	-1.903634E-10	-1.903634E-10	   22.9909	   23.3775	   18.9832	   -1.5501	
 -205.0000	-1.905612E-10	-1.905612E-10	   22.9935	   23.3759	   18.9870	   -1.5488	
 -210.0000	-1.906736E-10	-1.906736E-10	   22.9909	   23.3772	   18.9911	   -1.5447	
 -215.0000	-1.909644E-10	-1.909644E-10	   22.9909	   23.3772	   18.9911	   -1.5447	
 -220.0000	-1.917639E-10	-1.917639E-10	   22.9909	   23.3772	   18.9940	   -1.5427	
 -225.0000	-1.921271E-10	-1.921271E-10	   22.9909	   23.3772	   18.9940	   -1.5427	
 -230.0000	-1.922877E-10	-1.922877E-10	   22.9909	   23.3761	   18.9978	   -1.5409	
 -235.0000	-1.934191E-10	-1.934191E-10	   22.9935	   23.3742	   18.9911	   -1.5472	
 -240.0000	-1.939822E-10	-1.939822E-10	   22.9935	   23.3742	   18.9911	   -1.5472	
 -245.0000	-1.936867E-10	-1.936867E-10	   22.9909	   23.3801	   19.0028	   -1.5339	
 -250.0000	-1.943091E-10	-1.943091E-10	   22.9909	   23.3801	   19.0028	   -1.5339	
 -255.0000	-1.944533E-10	-1.944533E-10	   22.9909	   23.3738	   19.0054	   -1.5373	
 -260.0000	-1.952496E-10	-1.952496E-10	   22.9935	   23.3738	   19.0019	   -1.5398	
 -265.0000	-1.958086E-10	-1.958086E-10	   22.9935	   23.3738	   19.0019	   -1.5398	
 -270.0000	-1.959947E-10	-1.959947E-10	   22.9935	   23.3740	   19.0089	   -1.5347	
 -275.0000	-1.963135E-10	-1.963135E-10	   22.9935	   23.3740	   19.0089	   -1.5347	
 -280.0000	-1.966603E-10	-1.966603E-10	   22.9909	   23.3756	   19.0120	   -1.5311	
 -285.0000	-1.971180E-10	-1.971180E-10	   22.9935	   23.3726	   19.0104	   -1.5347	
 -290.0000	-1.979768E-10	-1.979768E-10	   22.9935	   23.3726	   19.0104	   -1.5347	
 -295.0000	-1.977744E-10	-1.977744E-10	   22.9935	   23.3732	   19.0098	   -1.5346	
 -300.0000	-1.983091E-10	-1.983091E-10	   22.9935	   23.3732	   19.0098	   -1.5346	
 -305.0000	-1.986155E-10	-1.986155E-10	   22.9935	   23.3750	   19.0120	   -1.5316	
 -310.0000	-1.988548E-10	-1.988548E-10	   22.9935	   23.3739	   19.0206	   -1.5264	
 -315.0000	-1.995668E-10	-1.995668E-10	   22.9935	   23.3739	   19.0206	   -1.5264	
 -320.0000	-2.006230E-10	-2.006230E-10	   22.9909	   23.3723	   19.0155	   -1.5314	
 -325.0000	-2.005804E-10	-2.005804E-10	   22.9909	   23.3723	   19.0155	   -1.5314	
 -330.0000	-2.009309E-10	-2.009309E-10	   22.9909	   23.3703	   19.0196	   -1.5300	
 -335.0000	-2.015925E-10	-2.015925E-10	   22.9909	   23.3729	   19.0190	   -1.5284	
 -340.0000	-2.017163E-10	-2.017163E-10	   22.9909	   23.3729	   19.0190	   -1.5284	
 -345.0000	-2.019569E-10	-2.019569E-10	   22.9935	   23.3724	   19.0253	   -1.5243	
 -350.0000	-2.027277E-10	-2.027277E-10	   22.9935	   23.3724	   19.0253	   -1.5243	
 -355.0000	-2.029113E-10	-2.029113E-10	   22.9909	   23.3726	   19.0199	   -1.5279	
 -360.0000	-2.030258E-10	-2.030258E-10	   22.9935	   23.3755	   19.0244	   -1.5224	
 -365.0000	-2.031481E-10	-2.031481E-10	   22.9935	   23.3755	   19.0244	   -1.5224	
 -370.0000	-2.035778E-10	-2.035778E-10	   22.9935	   23.3759	   19.0206	   -1.5247	
 -375.0000	-2.036137E-10	-2.036137E-10	   22.9935	   23.3759	   19.0206	   -1.5247	
 -380.0000	-2.044022E-10	-2.044022E-10	   22.9935	   23.3767	   19.0297	   -1.5175	
 -385.0000	-2.046001E-10	-2.046001E-10	   22.9935	   23.3726	   19.0228	   -1.5259	
 -390.0000	-2.049314E-10	-2.049314E-10	   22.9935	   23.3726	   19.0228	   -1.5259	
 -395.0000	-2.050730E-10	-2.050730E-10	   22.9935	   23.3726	   19.0332	   -1.5184	
 -400.0000	-2.052390E-10	-2.052390E-10	   22.9935	   23.3726	   19.0332	   -1.5184	
 -410.0000	-2.056957E-10	-2.056957E-10	   22.9935	   23.3749	   19.0215	   -1.5249	
 -420.0000	-2.071095E-10	-2.071095E-10	   22.9935	   23.3768	   19.0323	   -1.5157	
 -430.0000	-2.072928E-10	-2.072928E-10	   22.9935	   23.3768	   19.0323	   -1.5157	
 -440.0000	-2.079410E-10	-2.079410E-10	   22.9909	   23.3713	   19.0348	   -1.5184	
 -450.0000	-2.083234E-10	-2.083234E-10	   22.9909	   23.3713	   19.0348	   -1.5184	
 -460.0000	-2.084712E-10	-2.084712E-10	   22.9909	   23.3686	   19.0398	   -1.5170	
 -470.0000	-2.086069E-10	-2.086069E-10	   22.9909	   23.3686	   19.0398	   -1.5170	
 -480.0000	-2.097165E-10	-2.097165E-10	   22.9935	   23.3749	   19.0332	   -1.5166	
 -490.0000	-2.099189E-10	-2.099189E-10	   22.9909	   23.3749	   19.0316	   -1.5177	
 -500.0000	-2.103785E-10	-2.103785E-10	   22.9909	   23.3749	   19.0316	   -1.5177	
 -510.0000	-2.108697E-10	-2.108697E-10	   22.9909	   23.3713	   19.0427	   -1.5127	
 -520.0000	-2.108255E-10	-2.108255E-10	   22.9935	   23.3732	   19.0367	   -1.5154	
 -530.0000	-2.115570E-10	-2.115570E-10	   22.9935	   23.3732	   19.0367	   -1.5154	
 -540.0000	-2.124850E-10	-2.124850E-10	   22.9909	   23.3781	   19.0383	   -1.5103	
 -550.0000	-2.125849E-10	-2.125849E-10	   22.9909	   23.3781	   19.0383	   -1.5103	
 -560.0000	-2.130096E-10	-2.130096E-10	   22.9909	   23.3757	   19.0402	   -1.5109	
 -570.0000	-2.136175E-10	-2.136175E-10	   22.9935	   23.3777	   19.0370	   -1.5115	
 -580.0000	-2.136200E-10	-2.136200E-10	   22.9935	   23.3777	   19.0370	   -1.5115	
 -590.0000	-2.139272E-10	-2.139272E-10	   22.9935	   23.3776	   19.0380	   -1.5109	
 -600.0000	-2.147049E-10	-2.147049E-10	   22.9935	   23.3751	   19.0408	   -1.5110	
 -610.0000	-2.150703E-10	-2.150703E-10	   22.9935	   23.3751	   19.0408	   -1.5110	
 -620.0000	-2.153001E-10	-2.153001E-10	   22.9935	   23.3738	   19.0386	   -1.5136	
 -630.0000	-2.166751E-10	-2.166751E-10	   22.9935	   23.3738	   19.0386	   -1.5136	
 -640.0000	-2.168176E-10	-2.168176E-10	   22.9935	   23.3764	   19.0455	   -1.5065	
 -650.0000	-2.179552E-10	-2.179552E-10	   22.9935	   23.3764	   19.0455	   -1.5065	
 -660.0000	-2.179679E-10	-2.179679E-10	   22.9935	   23.3733	   19.0392	   -1.5136	
 -670.0000	-2.192460E-10	-2.192460E-10	   22.9935	   23.3736	   19.0332	   -1.5176	
 -680.0000	-2.201818E-10	-2.201818E-10	   22.9935	   23.3736	   19.0332	   -1.5176	
 -690.0000	-2.204873E-10	-2.204873E-10	   22.9935	   23.3738	   19.0342	   -1.5168	
 -700.0000	-2.216301E-10	-2.216301E-10	   22.9935	   23.3741	   19.0380	   -1.5138	
 -710.0000	-2.235633E-10	-2.235633E-10	   22.9935	   23.3741	   19.0380	   -1.5138	
 -720.0000	-2.236459E-10	-2.236459E-10	   22.9935	   23.3731	   19.0351	   -1.5166	
 -730.0000	-2.250535E-10	-2.250535E-10	   22.9935	   23.3731	   19.0351	   -1.5166	
 -740.0000	-2.257577E-10	-2.257577E-10	   22.9935	   23.3745	   19.0398	   -1.5121	
 -750.0000	-2.272973E-10	-2.272973E-10	   22.9935	   23.3739	   19.0455	   -1.5086	
 -760.0000	-2.283369E-10	-2.283369E-10	   22.9935	   23.3739	   19.0455	   -1.5086	
 -770.0000	-2.299353E-10	-2.299353E-10	   22.9909	   23.3739	   19.0560	   -1.5012	
 -780.0000	-2.317032E-10	-2.317032E-10	   22.9909	   23.3739	   19.0560	   -1.5012	
 -790.0000	-2.328591E-10	-2.328591E-10	   22.9935	   23.3749	   19.0398	   -1.5119	
 -800.0000	-2.347339E-10	-2.347339E-10	   22.9935	   23.3749	   19.0398	   -1.5119	
 -810.0000	-2.365195E-10	-2.365195E-10	   22.9935	   23.3720	   19.0541	   -1.5040	
 -820.0000	-2.391228E-10	-2.391228E-10	   22.9935	   23.3714	   19.0553	   -1.5036	
 -830.0000	-2.413163E-10	-2.413163E-10	   22.9935	   23.3714	   19.0553	   -1.5036	
 -840.0000	-2.438544E-10	-2.438544E-10	   22.9935	   23.3709	   19.0522	   -1.5063	
 -850.0000	-2.468719E-10	-2.468719E-10	   22.9935	   23.3709	   19.0522	   -1.5063	
 -860.0000	-2.492122E-10	-2.492122E-10	   22.9960	   23.3717	   19.0636	   -1.4975	
 -870.0000	-2.519987E-10	-2.519987E-10	   22.9935	   23.3736	   19.0515	   -1.5046	
 -880.0000	-2.552087E-10	-2.552087E-10	   22.9935	   23.3736	   19.0515	   -1.5046	
 -890.0000	-2.581615E-10	-2.581615E-10	   22.9935	   23.3757	   19.0493	   -1.5044	
 -900.0000	-2.619786E-10	-2.619786E-10	   22.9935	   23.3757	   19.0493	   -1.5044	
 -910.0000	-2.649256E-10	-2.649256E-10	   22.9935	   23.3743	   19.0471	   -1.5071	
 -920.0000	-2.690322E-10	-2.690322E-10	   22.9935	   23.3756	   19.0484	   -1.5052	
 -930.0000	-2.734088E-10	-2.734088E-10	   22.9935	   23.3756	   19.0484	   -1.5052	
 -940.0000	-2.780369E-10	-2.780369E-10	   22.9935	   23.3756	   19.0462	   -1.5068	
 -950.0000	-2.827013E-10	-2.827013E-10	   22.9935	   23.3756	   19.0462	   -1.5068	
 -960.0000	-2.885311E-10	-2.885311E-10	   22.9935	   23.3733	   19.0519	   -1.5046	
 -970.0000	-2.934292E-10	-2.934292E-10	   22.9935	   23.3733	   19.0519	   -1.5046	
 -980.0000	-2.990277E-10	-2.990277E-10	   22.9935	   23.3731	   19.0481	   -1.5074	
 -990.0000	-3.050119E-10	-3.050119E-10	   22.9935	   23.3763	   19.0484	   -1.5046	
-1000.0000	-3.114330E-10	-3.114330E-10	   22.9935	   23.3763	   19.0484	   -1.5046	
