GCD Test
Bias: 5000.000000
IV_34343_036_PSS_HM_XX_DIODEQUARTER_Biased_Front
Date/Time: 7/16/2021 12:06:59 PM
Sensor Name: DIODEQUARTER
Type: P
Annealing Status: Not Irradiated
Environment: 20C
Tester: Andrew Kent

Time Delay per Ramp Step (s): 0.500

CV Time Delay per Measurement (s) :0.500

AC Voltage (V): 0.500

Current Number of measurements per voltage: 1.000

IV Time Delay per Measurement (s) :0.000


BiasVoltage	Total Current_Avg	Total Current_0	Bias Current_Avg	Bias Current_0	Temperature	Air_Temp	Humidity	Dewpoint	
   -5.0000	-1.8000E-11	-1.8000E-11	-4.357614E-11	-4.357614E-11	   20.1326	   21.0336	   30.8428	    3.4621	
  -10.0000	-4.0000E-11	-4.0000E-11	-3.189620E-11	-3.189620E-11	   20.1326	   21.0523	   30.8428	    3.2115	
  -15.0000	-2.0000E-11	-2.0000E-11	-8.128528E-11	-8.128528E-11	   20.1454	   21.0362	   30.4045	    2.9955	
  -20.0000	-1.4400E-10	-1.4400E-10	-3.614507E-11	-3.614507E-11	   20.1377	   21.0384	   30.0351	    2.8251	
  -25.0000	-1.8900E-10	-1.8900E-10	-3.951328E-11	-3.951328E-11	   20.1042	   21.0384	   29.5693	    2.8251	
  -30.0000	-4.2500E-10	-4.2500E-10	-7.966335E-11	-7.966335E-11	   20.1042	   21.0309	   29.5693	    2.5987	
  -35.0000	-3.1800E-10	-3.1800E-10	-3.986712E-11	-3.986712E-11	   20.0528	   21.0403	   29.1793	    2.4204	
  -40.0000	-4.0000E-10	-4.0000E-10	-4.397154E-11	-4.397154E-11	   20.0013	   21.0403	   28.9358	    2.4204	
  -45.0000	-4.6000E-10	-4.6000E-10	-4.421030E-11	-4.421030E-11	   20.0013	   21.0296	   28.9358	    2.2936	
  -50.0000	-4.7300E-10	-4.7300E-10	-4.653468E-11	-4.653468E-11	   19.9575	   21.0256	   28.7204	    2.1855	
  -55.0000	-5.7300E-10	-5.7300E-10	-5.079395E-11	-5.079395E-11	   19.9266	   21.0356	   28.5614	    2.1163	
  -60.0000	-6.0900E-10	-6.0900E-10	-5.629606E-11	-5.629606E-11	   19.8932	   21.0356	   28.3381	    2.1163	
  -65.0000	-6.9700E-10	-6.9700E-10	-5.283332E-11	-5.283332E-11	   19.8932	   21.0434	   28.3381	    2.0132	
  -70.0000	-8.0600E-10	-8.0600E-10	-5.705408E-11	-5.705408E-11	   19.8906	   21.0300	   28.1429	    1.9051	
  -75.0000	-8.3000E-10	-8.3000E-10	-5.901177E-11	-5.901177E-11	   19.9086	   21.0300	   27.9978	    1.9051	
  -80.0000	-8.6400E-10	-8.6400E-10	-5.952756E-11	-5.952756E-11	   19.9086	   21.0300	   27.9978	    1.8329	
  -85.0000	-8.6100E-10	-8.6100E-10	-6.616214E-11	-6.616214E-11	   19.9653	   21.0300	   27.8292	    1.8329	
  -90.0000	-9.9100E-10	-9.9100E-10	-5.952410E-11	-5.952410E-11	   19.9653	   21.0252	   27.8292	    1.7444	
  -95.0000	-1.0040E-9	-1.0040E-9	-6.279169E-11	-6.279169E-11	   20.0270	   21.0257	   27.6996	    1.6797	
 -100.0000	-1.0730E-9	-1.0730E-9	-6.360633E-11	-6.360633E-11	   20.0785	   21.0257	   27.6246	    1.6797	
 -105.0000	-1.2010E-9	-1.2010E-9	-6.371491E-11	-6.371491E-11	   20.0785	   21.0194	   27.6246	    1.6365	
 -110.0000	-1.2770E-9	-1.2770E-9	-6.265823E-11	-6.265823E-11	   20.1171	   21.0199	   27.5544	    1.6015	
 -115.0000	-1.1660E-9	-1.1660E-9	-6.309153E-11	-6.309153E-11	   20.1403	   21.0273	   27.4997	    1.5802	
 -120.0000	-1.2080E-9	-1.2080E-9	-6.433763E-11	-6.433763E-11	   20.1480	   21.0239	   27.4466	    1.5503	
 -125.0000	-1.2970E-9	-1.2970E-9	-6.351689E-11	-6.351689E-11	   20.1351	   21.0179	   27.3839	    1.5133	
 -130.0000	-1.3020E-9	-1.3020E-9	-6.303000E-11	-6.303000E-11	   20.1042	   21.0316	   27.3374	    1.5013	
 -135.0000	-1.4020E-9	-1.4020E-9	-6.328056E-11	-6.328056E-11	   20.0605	   21.0329	   27.2834	    1.4749	
 -140.0000	-1.4270E-9	-1.4270E-9	-6.738624E-11	-6.738624E-11	   20.0090	   21.0273	   27.2331	    1.4444	
 -145.0000	-1.4820E-9	-1.4820E-9	-5.994660E-11	-5.994660E-11	   19.9601	   21.0227	   27.1834	    1.4151	
 -150.0000	-1.5990E-9	-1.5990E-9	-6.236526E-11	-6.236526E-11	   19.9164	   21.0212	   27.1404	    1.3917	
 -155.0000	-1.6870E-9	-1.6870E-9	-6.239072E-11	-6.239072E-11	   19.9164	   21.0212	   27.1404	    1.3917	
 -160.0000	-2.3990E-9	-2.3990E-9	-6.240276E-11	-6.240276E-11	   19.8803	   21.0238	   27.0914	    1.3688	
 -165.0000	-2.2200E-9	-2.2200E-9	-6.354621E-11	-6.354621E-11	   19.8803	   21.0181	   27.0680	    1.3520	
 -170.0000	-2.0220E-9	-2.0220E-9	-6.332068E-11	-6.332068E-11	   19.9009	   21.0146	   27.0506	    1.3400	
 -175.0000	-2.1190E-9	-2.1190E-9	-6.421947E-11	-6.421947E-11	   19.9369	   21.0146	   27.0506	    1.3400	
 -180.0000	-2.1570E-9	-2.1570E-9	-6.536963E-11	-6.536963E-11	   19.9369	   20.9989	   27.0288	    1.3154	
 -185.0000	-2.0070E-9	-2.0070E-9	-6.536721E-11	-6.536721E-11	   19.9807	   20.9989	   27.0022	    1.3017	
 -190.0000	-2.0110E-9	-2.0110E-9	-6.510990E-11	-6.510990E-11	   20.0347	   21.0085	   26.9997	    1.3086	
 -195.0000	-2.0700E-9	-2.0700E-9	-6.593086E-11	-6.593086E-11	   20.0347	   21.0085	   26.9997	    1.3086	
 -200.0000	-2.0250E-9	-2.0250E-9	-6.591457E-11	-6.591457E-11	   20.1017	   21.0149	   26.9668	    1.2971	
 -205.0000	-1.9560E-9	-1.9560E-9	-6.588358E-11	-6.588358E-11	   20.1351	   21.0095	   26.9522	    1.2850	
 -210.0000	-2.0510E-9	-2.0510E-9	-6.517791E-11	-6.517791E-11	   20.1686	   21.0095	   26.9424	    1.2850	
 -215.0000	-1.9960E-9	-1.9960E-9	-6.488335E-11	-6.488335E-11	   20.1686	   21.0076	   26.9424	    1.2783	
 -220.0000	-2.0140E-9	-2.0140E-9	-6.490779E-11	-6.490779E-11	   20.1634	   21.0076	   26.9424	    1.2783	
 -225.0000	-1.8670E-9	-1.8670E-9	-6.472648E-11	-6.472648E-11	   20.1634	   21.0118	   26.9152	    1.2679	
 -230.0000	-1.9420E-9	-1.9420E-9	-6.435819E-11	-6.435819E-11	   20.1454	   21.0118	   26.9004	    1.2602	
 -235.0000	-1.9190E-9	-1.9190E-9	-6.184148E-11	-6.184148E-11	   20.0965	   21.0118	   26.8808	    1.2602	
 -240.0000	-1.9300E-9	-1.9300E-9	-6.250682E-11	-6.250682E-11	   20.0965	   21.0115	   26.8808	    1.2498	
 -245.0000	-1.8430E-9	-1.8430E-9	-6.480617E-11	-6.480617E-11	   20.0553	   21.0069	   26.8643	    1.2374	
 -250.0000	-1.8330E-9	-1.8330E-9	-6.143000E-11	-6.143000E-11	   20.0193	   21.0020	   26.8567	    1.2293	
 -255.0000	-1.9340E-9	-1.9340E-9	-6.224811E-11	-6.224811E-11	   19.9704	   21.0020	   26.8567	    1.2293	
 -260.0000	-1.8780E-9	-1.8780E-9	-6.429259E-11	-6.429259E-11	   19.9704	   21.0066	   26.8384	    1.2237	
 -265.0000	-1.8780E-9	-1.8780E-9	-6.241738E-11	-6.241738E-11	   19.9344	   21.0066	   26.8362	    1.2225	
 -270.0000	-1.8140E-9	-1.8140E-9	-6.364436E-11	-6.364436E-11	   19.9086	   21.0066	   26.8153	    1.2225	
 -275.0000	-1.8990E-9	-1.8990E-9	-6.283070E-11	-6.283070E-11	   19.9086	   21.0038	   26.8153	    1.2093	
 -280.0000	-1.8940E-9	-1.8940E-9	-6.286127E-11	-6.286127E-11	   19.9086	   21.0038	   26.8074	    1.2093	
 -285.0000	-1.9820E-9	-1.9820E-9	-6.255998E-11	-6.255998E-11	   19.9086	   20.9981	   26.8074	    1.2004	
 -290.0000	-1.8690E-9	-1.8690E-9	-6.292484E-11	-6.292484E-11	   19.9344	   20.9981	   26.8074	    1.2004	
 -295.0000	-1.8040E-9	-1.8040E-9	-6.368631E-11	-6.368631E-11	   19.9344	   20.9966	   26.8125	    1.2017	
 -300.0000	-1.9350E-9	-1.9350E-9	-6.476253E-11	-6.476253E-11	   19.9678	   20.9966	   26.8039	    1.1973	
 -305.0000	-1.8870E-9	-1.8870E-9	-6.571856E-11	-6.571856E-11	   20.0142	   20.9966	   26.7932	    1.1973	
 -310.0000	-1.7790E-9	-1.7790E-9	-6.496582E-11	-6.496582E-11	   20.0142	   20.9931	   26.7932	    1.1887	
 -315.0000	-1.8590E-9	-1.8590E-9	-6.666032E-11	-6.666032E-11	   20.0579	   20.9965	   26.8061	    1.1983	
 -320.0000	-1.7830E-9	-1.7830E-9	-6.492407E-11	-6.492407E-11	   20.0862	   20.9993	   26.7957	    1.1953	
 -325.0000	-1.8300E-9	-1.8300E-9	-6.486052E-11	-6.486052E-11	   20.1223	   20.9993	   26.7957	    1.1953	
 -330.0000	-1.8540E-9	-1.8540E-9	-6.426608E-11	-6.426608E-11	   20.1223	   20.9981	   26.7916	    1.1922	
 -335.0000	-1.7210E-9	-1.7210E-9	-6.501064E-11	-6.501064E-11	   20.1326	   20.9981	   26.7903	    1.1915	
 -340.0000	-1.8780E-9	-1.8780E-9	-6.429723E-11	-6.429723E-11	   20.1274	   20.9981	   26.7736	    1.1915	
 -345.0000	-1.6950E-9	-1.6950E-9	-6.375107E-11	-6.375107E-11	   20.1274	   21.0060	   26.7736	    1.1896	
 -350.0000	-1.7590E-9	-1.7590E-9	-6.404322E-11	-6.404322E-11	   20.1094	   20.9925	   26.7849	    1.1840	
 -355.0000	-1.6860E-9	-1.6860E-9	-6.411308E-11	-6.411308E-11	   20.0759	   21.0011	   26.7805	    1.1890	
 -360.0000	-1.7310E-9	-1.7310E-9	-6.313890E-11	-6.313890E-11	   20.0296	   20.9890	   26.7619	    1.1690	
 -365.0000	-1.6520E-9	-1.6520E-9	-6.276182E-11	-6.276182E-11	   19.9858	   20.9927	   26.7669	    1.1748	
 -370.0000	-1.7180E-9	-1.7180E-9	-6.259295E-11	-6.259295E-11	   19.9421	   20.9912	   26.7726	    1.1765	
 -375.0000	-1.6920E-9	-1.6920E-9	-6.186550E-11	-6.186550E-11	   19.9086	   20.9853	   26.7780	    1.1742	
 -380.0000	-1.6310E-9	-1.6310E-9	-6.316051E-11	-6.316051E-11	   19.8855	   20.9899	   26.7723	    1.1752	
 -385.0000	-1.6740E-9	-1.6740E-9	-6.258602E-11	-6.258602E-11	   19.8777	   20.9797	   26.7710	    1.1658	
 -390.0000	-1.7100E-9	-1.7100E-9	-6.348561E-11	-6.348561E-11	   19.8932	   20.9903	   26.7593	    1.1688	
 -395.0000	-1.7080E-9	-1.7080E-9	-6.427148E-11	-6.427148E-11	   19.9189	   20.9787	   26.7574	    1.1580	
 -400.0000	-1.7950E-9	-1.7950E-9	-6.420001E-11	-6.420001E-11	   19.9678	   20.9777	   26.7479	    1.1521	
 -410.0000	-1.6570E-9	-1.6570E-9	-6.432387E-11	-6.432387E-11	   20.0090	   20.9851	   26.7407	    1.1547	
 -420.0000	-1.6230E-9	-1.6230E-9	-6.553370E-11	-6.553370E-11	   20.0837	   20.9851	   26.7419	    1.1547	
 -430.0000	-1.6550E-9	-1.6550E-9	-6.520248E-11	-6.520248E-11	   20.0837	   20.9794	   26.7419	    1.1505	
 -440.0000	-1.6490E-9	-1.6490E-9	-6.487023E-11	-6.487023E-11	   20.1326	   20.9808	   26.7530	    1.1574	
 -450.0000	-1.6070E-9	-1.6070E-9	-6.359701E-11	-6.359701E-11	   20.1660	   20.9808	   26.7584	    1.1574	
 -460.0000	-1.5950E-9	-1.5950E-9	-6.419004E-11	-6.419004E-11	   20.1531	   20.9756	   26.7584	    1.1557	
 -470.0000	-1.6460E-9	-1.6460E-9	-6.415622E-11	-6.415622E-11	   20.1197	   20.9830	   26.7663	    1.1621	
 -480.0000	-1.6210E-9	-1.6210E-9	-6.360596E-11	-6.360596E-11	   20.1197	   20.9831	   26.7663	    1.1662	
 -490.0000	-1.5540E-9	-1.5540E-9	-6.302417E-11	-6.302417E-11	   20.0656	   20.9790	   26.7391	    1.1486	
 -500.0000	-1.6270E-9	-1.6270E-9	-6.254422E-11	-6.254422E-11	   20.0142	   20.9729	   26.7306	    1.1390	
 -510.0000	-1.5130E-9	-1.5130E-9	-6.249330E-11	-6.249330E-11	   19.9653	   20.9809	   26.7249	    1.1429	
 -520.0000	-1.5070E-9	-1.5070E-9	-6.225005E-11	-6.225005E-11	   19.9241	   20.9739	   26.7249	    1.1369	
 -530.0000	-1.5490E-9	-1.5490E-9	-6.154297E-11	-6.154297E-11	   19.8983	   20.9786	   26.7359	    1.1467	
 -540.0000	-1.5260E-9	-1.5260E-9	-6.295368E-11	-6.295368E-11	   19.8906	   20.9783	   26.7366	    1.1468	
 -550.0000	-1.6120E-9	-1.6120E-9	-6.370578E-11	-6.370578E-11	   19.9266	   20.9783	   26.7407	    1.1468	
 -560.0000	-1.6160E-9	-1.6160E-9	-6.397039E-11	-6.397039E-11	   19.9704	   20.9775	   26.7321	    1.1482	
 -570.0000	-1.5390E-9	-1.5390E-9	-6.376179E-11	-6.376179E-11	   20.0245	   20.9728	   26.7280	    1.1397	
 -580.0000	-1.5200E-9	-1.5200E-9	-6.410278E-11	-6.410278E-11	   20.0785	   20.9768	   26.7299	    1.1410	
 -590.0000	-1.5270E-9	-1.5270E-9	-6.545890E-11	-6.545890E-11	   20.0785	   20.9756	   26.7299	    1.1410	
 -600.0000	-1.5860E-9	-1.5860E-9	-6.466302E-11	-6.466302E-11	   20.1274	   20.9781	   26.7204	    1.1382	
 -610.0000	-1.5750E-9	-1.5750E-9	-6.485390E-11	-6.485390E-11	   20.1506	   20.9730	   26.7366	    1.1422	
 -620.0000	-1.4840E-9	-1.4840E-9	-6.337984E-11	-6.337984E-11	   20.1583	   20.9722	   26.7400	    1.1434	
 -630.0000	-1.5910E-9	-1.5910E-9	-6.339205E-11	-6.339205E-11	   20.1454	   20.9636	   26.7343	    1.1331	
 -640.0000	-1.4880E-9	-1.4880E-9	-6.304796E-11	-6.304796E-11	   20.1120	   20.9676	   26.7176	    1.1278	
 -650.0000	-1.6050E-9	-1.6050E-9	-6.215651E-11	-6.215651E-11	   20.0682	   20.9666	   26.7207	    1.1285	
 -660.0000	-1.5930E-9	-1.5930E-9	-6.173095E-11	-6.173095E-11	   19.9781	   20.9708	   26.7147	    1.1290	
 -670.0000	-1.4890E-9	-1.4890E-9	-6.264175E-11	-6.264175E-11	   19.9344	   20.9708	   26.7125	    1.1290	
 -680.0000	-1.6150E-9	-1.6150E-9	-6.222861E-11	-6.222861E-11	   19.9035	   20.9704	   26.7113	    1.1275	
 -690.0000	-1.5290E-9	-1.5290E-9	-6.229255E-11	-6.229255E-11	   19.8906	   20.9735	   26.7106	    1.1295	
 -700.0000	-1.6080E-9	-1.6080E-9	-6.310699E-11	-6.310699E-11	   19.8906	   20.9607	   26.7106	    1.1182	
 -710.0000	-1.5740E-9	-1.5740E-9	-6.351561E-11	-6.351561E-11	   19.9035	   20.9643	   26.7097	    1.1208	
 -720.0000	-1.5350E-9	-1.5350E-9	-6.300614E-11	-6.300614E-11	   19.9344	   20.9521	   26.7034	    1.1071	
 -730.0000	-1.5670E-9	-1.5670E-9	-6.428792E-11	-6.428792E-11	   19.9807	   20.9586	   26.7166	    1.1195	
 -740.0000	-1.5920E-9	-1.5920E-9	-6.422659E-11	-6.422659E-11	   20.0296	   20.9691	   26.7087	    1.1244	
 -750.0000	-1.5890E-9	-1.5890E-9	-6.638919E-11	-6.638919E-11	   20.0837	   20.9636	   26.7132	    1.1221	
 -760.0000	-1.5730E-9	-1.5730E-9	-6.498034E-11	-6.498034E-11	   20.1300	   20.9579	   26.7185	    1.1200	
 -770.0000	-1.5000E-9	-1.5000E-9	-6.512924E-11	-6.512924E-11	   20.1557	   20.9474	   26.7226	    1.1132	
 -780.0000	-1.5890E-9	-1.5890E-9	-6.472348E-11	-6.472348E-11	   20.1660	   20.9562	   26.7242	    1.1215	
 -790.0000	-1.5730E-9	-1.5730E-9	-6.178998E-11	-6.178998E-11	   20.1326	   20.9553	   26.7343	    1.1259	
 -800.0000	-1.5260E-9	-1.5260E-9	-6.386420E-11	-6.386420E-11	   20.0811	   20.9553	   26.7441	    1.1259	
 -810.0000	-1.5640E-9	-1.5640E-9	-6.280428E-11	-6.280428E-11	   20.0322	   20.9499	   26.7429	    1.1265	
 -820.0000	-1.4560E-9	-1.4560E-9	-6.314039E-11	-6.314039E-11	   20.0322	   20.9553	   26.7429	    1.1304	
 -830.0000	-1.5650E-9	-1.5650E-9	-6.253291E-11	-6.253291E-11	   19.9730	   20.9493	   26.7454	    1.1266	
 -840.0000	-1.5390E-9	-1.5390E-9	-6.265921E-11	-6.265921E-11	   19.9292	   20.9479	   26.7530	    1.1294	
 -850.0000	-1.4980E-9	-1.4980E-9	-6.153063E-11	-6.153063E-11	   19.8983	   20.9501	   26.7483	    1.1287	
 -860.0000	-1.5680E-9	-1.5680E-9	-6.243207E-11	-6.243207E-11	   19.8829	   20.9444	   26.7590	    1.1294	
 -870.0000	-1.5260E-9	-1.5260E-9	-6.296356E-11	-6.296356E-11	   19.8880	   20.9414	   26.7713	    1.1333	
 -880.0000	-1.5410E-9	-1.5410E-9	-6.369713E-11	-6.369713E-11	   19.9138	   20.9491	   26.7796	    1.1441	
 -890.0000	-1.5720E-9	-1.5720E-9	-6.387172E-11	-6.387172E-11	   19.9575	   20.9449	   26.7856	    1.1436	
 -900.0000	-1.5200E-9	-1.5200E-9	-6.457333E-11	-6.457333E-11	   20.0090	   20.9352	   26.7948	    1.1402	
 -910.0000	-1.5930E-9	-1.5930E-9	-6.509317E-11	-6.509317E-11	   20.1017	   20.9475	   26.7951	    1.1509	
 -920.0000	-1.4520E-9	-1.4520E-9	-6.458573E-11	-6.458573E-11	   20.1557	   20.9475	   26.7887	    1.1509	
 -930.0000	-1.4400E-9	-1.4400E-9	-6.451828E-11	-6.451828E-11	   20.1815	   20.9475	   26.7742	    1.1476	
 -940.0000	-1.4890E-9	-1.4890E-9	-6.450159E-11	-6.450159E-11	   20.1815	   20.9398	   26.7603	    1.1334	
 -950.0000	-1.4680E-9	-1.4680E-9	-6.414590E-11	-6.414590E-11	   20.1815	   20.9339	   26.7603	    1.1211	
 -960.0000	-1.4380E-9	-1.4380E-9	-6.279101E-11	-6.279101E-11	   20.1506	   20.9319	   26.7593	    1.1190	
 -970.0000	-1.4920E-9	-1.4920E-9	-6.270176E-11	-6.270176E-11	   20.1094	   20.9348	   26.7581	    1.1208	
 -980.0000	-1.3570E-9	-1.3570E-9	-6.275778E-11	-6.275778E-11	   20.0656	   20.9339	   26.7650	    1.1236	
 -990.0000	-1.4010E-9	-1.4010E-9	-6.180401E-11	-6.180401E-11	   20.0142	   20.9391	   26.7457	    1.1181	
-1000.0000	-1.4110E-9	-1.4110E-9	-6.206170E-11	-6.206170E-11	   19.9678	   20.9391	   26.7302	    1.1100	
