GCD Test
Bias: 5000.000000
IV_34341_024_PSS_HM_XX_DIODEHALF_Biased_Box
Date/Time: 7/22/2021 4:00:08 PM
Sensor Name: DIODEHALF
Type: P
Annealing Status: Not Irradiated
Environment: 20C
Tester: Andrew Kent

Time Delay per Ramp Step (s): 0.500

CV Time Delay per Measurement (s) :0.500

AC Voltage (V): 0.500

Current Number of measurements per voltage: 1.000

IV Time Delay per Measurement (s) :0.000


BiasVoltage	Total Current_Avg	Total Current_0	Bias Current_Avg	Bias Current_0	Temperature	Air_Temp	Humidity	Dewpoint	
   -5.0000	-6.7200E-10	-6.7200E-10	7.303898E-10	7.303898E-10	   19.7594	   20.3254	   59.5664	   12.1863	
  -10.0000	-6.9200E-10	-6.9200E-10	3.645592E-10	3.645592E-10	   19.7594	   20.3171	   59.5664	   12.1908	
  -15.0000	-9.2200E-10	-9.2200E-10	2.830569E-10	2.830569E-10	   19.8108	   20.3423	   59.6392	   12.2330	
  -20.0000	-5.9400E-10	-5.9400E-10	1.242915E-10	1.242915E-10	   19.8829	   20.3423	   59.6249	   12.2330	
  -25.0000	-1.2290E-9	-1.2290E-9	-1.961365E-11	-1.961365E-11	   19.8829	   20.3170	   59.6249	   12.2056	
  -30.0000	-1.5370E-9	-1.5370E-9	-5.811604E-11	-5.811604E-11	   20.0116	   20.3427	   59.6442	   12.2346	
  -35.0000	-1.4120E-9	-1.4120E-9	-5.631035E-11	-5.631035E-11	   20.0116	   20.3427	   59.6442	   12.2346	
  -40.0000	-1.7790E-9	-1.7790E-9	-6.556938E-11	-6.556938E-11	   20.1248	   20.3254	   59.5936	   12.2056	
  -45.0000	-2.4830E-9	-2.4830E-9	-6.664783E-11	-6.664783E-11	   20.1995	   20.3493	   59.5797	   12.2244	
  -50.0000	-3.0100E-9	-3.0100E-9	-6.486577E-11	-6.486577E-11	   20.2716	   20.3493	   59.5727	   12.2244	
  -55.0000	-3.5960E-9	-3.5960E-9	-6.739300E-11	-6.739300E-11	   20.2716	   20.3354	   59.5727	   12.2096	
  -60.0000	-4.0750E-9	-4.0750E-9	-7.072713E-11	-7.072713E-11	   20.2690	   20.3359	   59.5183	   12.1962	
  -65.0000	-4.6530E-9	-4.6530E-9	-6.596823E-11	-6.596823E-11	   20.2381	   20.3418	   59.5073	   12.1989	
  -70.0000	-5.6220E-9	-5.6220E-9	-6.962889E-11	-6.962889E-11	   20.1789	   20.3306	   59.5212	   12.1919	
  -75.0000	-5.7050E-9	-5.7050E-9	-7.446700E-11	-7.446700E-11	   20.0528	   20.3306	   59.5553	   12.1919	
  -80.0000	-5.9920E-9	-5.9920E-9	-7.509729E-11	-7.509729E-11	   20.0528	   20.3439	   59.5553	   12.2132	
  -85.0000	-5.7080E-9	-5.7080E-9	-7.838088E-11	-7.838088E-11	   19.9550	   20.3439	   59.5474	   12.2111	
  -90.0000	-5.3680E-9	-5.3680E-9	-7.428694E-11	-7.428694E-11	   19.8700	   20.3643	   59.5335	   12.2267	
  -95.0000	-4.8940E-9	-4.8940E-9	-7.934281E-11	-7.934281E-11	   19.7799	   20.3643	   59.5417	   12.2267	
 -100.0000	-4.7250E-9	-4.7250E-9	-7.586629E-11	-7.586629E-11	   19.7799	   20.3643	   59.5417	   12.2288	
 -105.0000	-4.5200E-9	-4.5200E-9	-8.227664E-11	-8.227664E-11	   19.7491	   20.3425	   59.5332	   12.2061	
 -110.0000	-4.4460E-9	-4.4460E-9	-7.547517E-11	-7.547517E-11	   19.7748	   20.3425	   59.5525	   12.2061	
 -115.0000	-4.5440E-9	-4.5440E-9	-8.004500E-11	-8.004500E-11	   19.7748	   20.3256	   59.5525	   12.1952	
 -120.0000	-4.5400E-9	-4.5400E-9	-8.020940E-11	-8.020940E-11	   19.8366	   20.3257	   59.5772	   12.2016	
 -125.0000	-4.3920E-9	-4.3920E-9	-8.078996E-11	-8.078996E-11	   19.9189	   20.3310	   59.6037	   12.2134	
 -130.0000	-4.6150E-9	-4.6150E-9	-8.238277E-11	-8.238277E-11	   20.0142	   20.3334	   59.6142	   12.2183	
 -135.0000	-4.7440E-9	-4.7440E-9	-8.056588E-11	-8.056588E-11	   20.0142	   20.3334	   59.6142	   12.2183	
 -140.0000	-5.2280E-9	-5.2280E-9	-8.398597E-11	-8.398597E-11	   20.1918	   20.3334	   59.6376	   12.2243	
 -145.0000	-5.9590E-9	-5.9590E-9	-8.211508E-11	-8.211508E-11	   20.2638	   20.3476	   59.6195	   12.2330	
 -150.0000	-7.9290E-9	-7.9290E-9	-8.410288E-11	-8.410288E-11	   20.3127	   20.3496	   59.5563	   12.2188	
 -155.0000	-9.1250E-9	-9.1250E-9	-8.903894E-11	-8.903894E-11	   20.3076	   20.3422	   59.5108	   12.2001	
 -160.0000	-1.0000E-8	-1.0000E-8	-8.643758E-11	-8.643758E-11	   20.2458	   20.3422	   59.4700	   12.2001	
 -165.0000	-1.0060E-8	-1.0060E-8	-9.024269E-11	-9.024269E-11	   20.1737	   20.3422	   59.4437	   12.1897	
 -170.0000	-1.1440E-8	-1.1440E-8	-9.198459E-11	-9.198459E-11	   20.1737	   20.3316	   59.4437	   12.1731	
 -175.0000	-1.1040E-8	-1.1040E-8	-9.037140E-11	-9.037140E-11	   20.0965	   20.3529	   59.4491	   12.1945	
 -180.0000	-1.0150E-8	-1.0150E-8	-9.290227E-11	-9.290227E-11	   20.0039	   20.3468	   59.4801	   12.1966	
 -185.0000	-9.2970E-9	-9.2970E-9	-9.273975E-11	-9.273975E-11	   19.9241	   20.3368	   59.4908	   12.1900	
 -190.0000	-8.3980E-9	-8.3980E-9	-9.400255E-11	-9.400255E-11	   19.8572	   20.3369	   59.5250	   12.1988	
 -195.0000	-7.2570E-9	-7.2570E-9	-9.299722E-11	-9.299722E-11	   19.8108	   20.3498	   59.5335	   12.2131	
 -200.0000	-7.6120E-9	-7.6120E-9	-9.435251E-11	-9.435251E-11	   19.8108	   20.3498	   59.5335	   12.2131	
 -205.0000	-7.5370E-9	-7.5370E-9	-9.432496E-11	-9.432496E-11	   19.8005	   20.3498	   59.5111	   12.2074	
 -210.0000	-7.1370E-9	-7.1370E-9	-9.391696E-11	-9.391696E-11	   19.8288	   20.3246	   59.5180	   12.1855	
 -215.0000	-6.7980E-9	-6.7980E-9	-9.496014E-11	-9.496014E-11	   19.8777	   20.3346	   59.5813	   12.2110	
 -220.0000	-6.3680E-9	-6.3680E-9	-9.593779E-11	-9.593779E-11	   19.9550	   20.3313	   59.6145	   12.2164	
 -225.0000	-7.3160E-9	-7.3160E-9	-9.595246E-11	-9.595246E-11	   20.0476	   20.3326	   59.6164	   12.2181	
 -230.0000	-7.7640E-9	-7.7640E-9	-9.711764E-11	-9.711764E-11	   20.1300	   20.3263	   59.6300	   12.2157	
 -235.0000	-8.8030E-9	-8.8030E-9	-9.733093E-11	-9.733093E-11	   20.1995	   20.3310	   59.6047	   12.2136	
 -240.0000	-1.0020E-8	-1.0020E-8	-9.803634E-11	-9.803634E-11	   20.2484	   20.3316	   59.5965	   12.2121	
 -245.0000	-1.1830E-8	-1.1830E-8	-9.624131E-11	-9.624131E-11	   20.2664	   20.3455	   59.5844	   12.2221	
 -250.0000	-1.3230E-8	-1.3230E-8	-9.796997E-11	-9.796997E-11	   20.2484	   20.3378	   59.5490	   12.2058	
 -255.0000	-1.4330E-8	-1.4330E-8	-9.813381E-11	-9.813381E-11	   20.2484	   20.3378	   59.5490	   12.2058	
 -260.0000	-1.4340E-8	-1.4340E-8	-1.013186E-10	-1.013186E-10	   20.1815	   20.3316	   59.5139	   12.1910	
 -265.0000	-1.5540E-8	-1.5540E-8	-1.032434E-10	-1.032434E-10	   20.1326	   20.3391	   59.5073	   12.1963	
 -270.0000	-1.5970E-8	-1.5970E-8	-1.024716E-10	-1.024716E-10	   20.1326	   20.3391	   59.5073	   12.1963	
 -275.0000	-1.5070E-8	-1.5070E-8	-1.053578E-10	-1.053578E-10	   20.0116	   20.3095	   59.5073	   12.1686	
 -280.0000	-1.3430E-8	-1.3430E-8	-1.047016E-10	-1.047016E-10	   19.9575	   20.3130	   59.5180	   12.1747	
 -285.0000	-1.3490E-8	-1.3490E-8	-1.049369E-10	-1.049369E-10	   19.9575	   20.3130	   59.5180	   12.1747	
 -290.0000	-1.2600E-8	-1.2600E-8	-1.058352E-10	-1.058352E-10	   19.8572	   20.3158	   59.5478	   12.1849	
 -295.0000	-1.2090E-8	-1.2090E-8	-1.053300E-10	-1.053300E-10	   19.8108	   20.3317	   59.5389	   12.1975	
 -300.0000	-1.0440E-8	-1.0440E-8	-1.048421E-10	-1.048421E-10	   19.7722	   20.3317	   59.6028	   12.1975	
 -305.0000	-1.0570E-8	-1.0570E-8	-1.038590E-10	-1.038590E-10	   19.7722	   20.3399	   59.6028	   12.2215	
 -310.0000	-9.5280E-9	-9.5280E-9	-1.043791E-10	-1.043791E-10	   19.7851	   20.3292	   59.6154	   12.2147	
 -315.0000	-9.1190E-9	-9.1190E-9	-1.045535E-10	-1.045535E-10	   19.8288	   20.3163	   59.6455	   12.2102	
 -320.0000	-8.7600E-9	-8.7600E-9	-1.027172E-10	-1.027172E-10	   19.8958	   20.3311	   59.6401	   12.2228	
 -325.0000	-8.9760E-9	-8.9760E-9	-1.046225E-10	-1.046225E-10	   19.9833	   20.3177	   59.6373	   12.2094	
 -330.0000	-9.4330E-9	-9.4330E-9	-1.049418E-10	-1.049418E-10	   20.0682	   20.3157	   59.6426	   12.2089	
 -335.0000	-1.0038E-8	-1.0038E-8	-1.050994E-10	-1.050994E-10	   20.1557	   20.3016	   59.6679	   12.2021	
 -340.0000	-1.1330E-8	-1.1330E-8	-1.067261E-10	-1.067261E-10	   20.2149	   20.3229	   59.6686	   12.2223	
 -345.0000	-1.2790E-8	-1.2790E-8	-1.059957E-10	-1.059957E-10	   20.2535	   20.3352	   59.6243	   12.2225	
 -350.0000	-1.4950E-8	-1.4950E-8	-1.070714E-10	-1.070714E-10	   20.2510	   20.3295	   59.6392	   12.2210	
 -355.0000	-1.6970E-8	-1.6970E-8	-1.078318E-10	-1.078318E-10	   20.2226	   20.3181	   59.6331	   12.2088	
 -360.0000	-1.7730E-8	-1.7730E-8	-1.081477E-10	-1.081477E-10	   20.2226	   20.3181	   59.6331	   12.2088	
 -365.0000	-1.8680E-8	-1.8680E-8	-1.105513E-10	-1.105513E-10	   20.1506	   20.3403	   59.6613	   12.2368	
 -370.0000	-1.8290E-8	-1.8290E-8	-1.089550E-10	-1.089550E-10	   20.0837	   20.3352	   59.6651	   12.2329	
 -375.0000	-1.8100E-8	-1.8100E-8	-1.120716E-10	-1.120716E-10	   20.0837	   20.3352	   59.6651	   12.2329	
 -380.0000	-1.7790E-8	-1.7790E-8	-1.112933E-10	-1.112933E-10	   19.9781	   20.3300	   59.6648	   12.2280	
 -385.0000	-1.6530E-8	-1.6530E-8	-1.106114E-10	-1.106114E-10	   19.9138	   20.3435	   59.6486	   12.2365	
 -390.0000	-1.5070E-8	-1.5070E-8	-1.107551E-10	-1.107551E-10	   19.9138	   20.3435	   59.6486	   12.2365	
 -395.0000	-1.4220E-8	-1.4220E-8	-1.107139E-10	-1.107139E-10	   19.8237	   20.3376	   59.6015	   12.2190	
 -400.0000	-1.2970E-8	-1.2970E-8	-1.103101E-10	-1.103101E-10	   19.7902	   20.3686	   59.5996	   12.2476	
 -410.0000	-1.2860E-8	-1.2860E-8	-1.116141E-10	-1.116141E-10	   19.7902	   20.3686	   59.5996	   12.2476	
 -420.0000	-1.2140E-8	-1.2140E-8	-1.133987E-10	-1.133987E-10	   19.7671	   20.3296	   59.6284	   12.2184	
 -430.0000	-1.1340E-8	-1.1340E-8	-1.102596E-10	-1.102596E-10	   19.7774	   20.3255	   59.6531	   12.2208	
 -440.0000	-1.1670E-8	-1.1670E-8	-1.130036E-10	-1.130036E-10	   19.7774	   20.3255	   59.6531	   12.2208	
 -450.0000	-1.0160E-8	-1.0160E-8	-1.117071E-10	-1.117071E-10	   19.8674	   20.3255	   59.6578	   12.2220	
 -460.0000	-1.1800E-8	-1.1800E-8	-1.128302E-10	-1.128302E-10	   19.9807	   20.3330	   59.6632	   12.2304	
 -470.0000	-1.1840E-8	-1.1840E-8	-1.142783E-10	-1.142783E-10	   19.9807	   20.3330	   59.6632	   12.2304	
 -480.0000	-1.3140E-8	-1.3140E-8	-1.140820E-10	-1.140820E-10	   20.0888	   20.3272	   59.6654	   12.2255	
 -490.0000	-1.4020E-8	-1.4020E-8	-1.129135E-10	-1.129135E-10	   20.1609	   20.3223	   59.6610	   12.2198	
 -500.0000	-1.5340E-8	-1.5340E-8	-1.145045E-10	-1.145045E-10	   20.1609	   20.3223	   59.6610	   12.2198	
 -510.0000	-1.6700E-8	-1.6700E-8	-1.156819E-10	-1.156819E-10	   20.2278	   20.3170	   59.6932	   12.2230	
 -520.0000	-1.9680E-8	-1.9680E-8	-1.140549E-10	-1.140549E-10	   20.2484	   20.3074	   59.6837	   12.2116	
 -530.0000	-2.1260E-8	-2.1260E-8	-1.152900E-10	-1.152900E-10	   20.2484	   20.3074	   59.6837	   12.2116	
 -540.0000	-2.4540E-8	-2.4540E-8	-1.169942E-10	-1.169942E-10	   20.2355	   20.3317	   59.6714	   12.2312	
 -550.0000	-2.6880E-8	-2.6880E-8	-1.149852E-10	-1.149852E-10	   20.2021	   20.3231	   59.6607	   12.2205	
 -560.0000	-2.7780E-8	-2.7780E-8	-1.185747E-10	-1.185747E-10	   20.2021	   20.3231	   59.6607	   12.2205	
 -570.0000	-2.8290E-8	-2.8290E-8	-1.195612E-10	-1.195612E-10	   20.1120	   20.3231	   59.6452	   12.2166	
 -580.0000	-2.8480E-8	-2.8480E-8	-1.197638E-10	-1.197638E-10	   20.0476	   20.3289	   59.6344	   12.2192	
 -590.0000	-2.7130E-8	-2.7130E-8	-1.202927E-10	-1.202927E-10	   20.0476	   20.3289	   59.6344	   12.2192	
 -600.0000	-2.4760E-8	-2.4760E-8	-1.210660E-10	-1.210660E-10	   19.9369	   20.3289	   59.6401	   12.2206	
 -610.0000	-2.2790E-8	-2.2790E-8	-1.200378E-10	-1.200378E-10	   19.8752	   20.3035	   59.6237	   12.1927	
 -620.0000	-2.1240E-8	-2.1240E-8	-1.227370E-10	-1.227370E-10	   19.8752	   20.3035	   59.6237	   12.1927	
 -630.0000	-2.0270E-8	-2.0270E-8	-1.214640E-10	-1.214640E-10	   19.8031	   20.3443	   59.6572	   12.2394	
 -640.0000	-1.8880E-8	-1.8880E-8	-1.199845E-10	-1.199845E-10	   19.7722	   20.2971	   59.6692	   12.1982	
 -650.0000	-1.7990E-8	-1.7990E-8	-1.197651E-10	-1.197651E-10	   19.7722	   20.2971	   59.6692	   12.1982	
 -660.0000	-1.7120E-8	-1.7120E-8	-1.191146E-10	-1.191146E-10	   19.7696	   20.2971	   59.6730	   12.1992	
 -670.0000	-1.7760E-8	-1.7760E-8	-1.214575E-10	-1.214575E-10	   19.7954	   20.3282	   59.6682	   12.2272	
 -680.0000	-1.6390E-8	-1.6390E-8	-1.211900E-10	-1.211900E-10	   19.7954	   20.3282	   59.6682	   12.2272	
 -690.0000	-1.5550E-8	-1.5550E-8	-1.221027E-10	-1.221027E-10	   19.8623	   20.3113	   59.6875	   12.2163	
 -700.0000	-1.5980E-8	-1.5980E-8	-1.215714E-10	-1.215714E-10	   19.9292	   20.3149	   59.6837	   12.2186	
 -710.0000	-1.6190E-8	-1.6190E-8	-1.218849E-10	-1.218849E-10	   19.9292	   20.3149	   59.6837	   12.2186	
 -720.0000	-1.6690E-8	-1.6690E-8	-1.212658E-10	-1.212658E-10	   20.0322	   20.3149	   59.7207	   12.2281	
 -730.0000	-1.7540E-8	-1.7540E-8	-1.222225E-10	-1.222225E-10	   20.1068	   20.3262	   59.7438	   12.2446	
 -740.0000	-1.8450E-8	-1.8450E-8	-1.221192E-10	-1.221192E-10	   20.1068	   20.3262	   59.7438	   12.2446	
 -750.0000	-1.9780E-8	-1.9780E-8	-1.224275E-10	-1.224275E-10	   20.1866	   20.3262	   59.7653	   12.2501	
 -760.0000	-2.1480E-8	-2.1480E-8	-1.227448E-10	-1.227448E-10	   20.2226	   20.3311	   59.7334	   12.2465	
 -770.0000	-2.3720E-8	-2.3720E-8	-1.218947E-10	-1.218947E-10	   20.2226	   20.3311	   59.7334	   12.2465	
 -780.0000	-2.5150E-8	-2.5150E-8	-1.232339E-10	-1.232339E-10	   20.2355	   20.3311	   59.7094	   12.2404	
 -790.0000	-2.8140E-8	-2.8140E-8	-1.226374E-10	-1.226374E-10	   20.2201	   20.3150	   59.6701	   12.2153	
 -800.0000	-3.0090E-8	-3.0090E-8	-1.223814E-10	-1.223814E-10	   20.2201	   20.3150	   59.6701	   12.2153	
 -810.0000	-3.1040E-8	-3.1040E-8	-1.262891E-10	-1.262891E-10	   20.1557	   20.3150	   59.6641	   12.2138	
 -820.0000	-3.0740E-8	-3.0740E-8	-1.268410E-10	-1.268410E-10	   20.1017	   20.3311	   59.6521	   12.2258	
 -830.0000	-3.0160E-8	-3.0160E-8	-1.275986E-10	-1.275986E-10	   20.1017	   20.3311	   59.6521	   12.2258	
 -840.0000	-2.9100E-8	-2.9100E-8	-1.285244E-10	-1.285244E-10	   19.9961	   20.3311	   59.6793	   12.2328	
 -850.0000	-2.5850E-8	-2.5850E-8	-1.255688E-10	-1.255688E-10	   19.9344	   20.3185	   59.6796	   12.2210	
 -860.0000	-2.3250E-8	-2.3250E-8	-1.272832E-10	-1.272832E-10	   19.9344	   20.3185	   59.6796	   12.2210	
 -870.0000	-2.1830E-8	-2.1830E-8	-1.279400E-10	-1.279400E-10	   19.8417	   20.3185	   59.6992	   12.2260	
 -880.0000	-1.9140E-8	-1.9140E-8	-1.264006E-10	-1.264006E-10	   19.8031	   20.3337	   59.7277	   12.2474	
 -890.0000	-1.8230E-8	-1.8230E-8	-1.269620E-10	-1.269620E-10	   19.8031	   20.3337	   59.7277	   12.2474	
 -900.0000	-1.7240E-8	-1.7240E-8	-1.290628E-10	-1.290628E-10	   19.7722	   20.3337	   59.7834	   12.2616	
 -910.0000	-1.6290E-8	-1.6290E-8	-1.261791E-10	-1.261791E-10	   19.7774	   20.3370	   59.7511	   12.2565	
 -920.0000	-1.5650E-8	-1.5650E-8	-1.264116E-10	-1.264116E-10	   19.7774	   20.3370	   59.7511	   12.2565	
 -930.0000	-1.4970E-8	-1.4970E-8	-1.285821E-10	-1.285821E-10	   19.8185	   20.3413	   59.7299	   12.2552	
 -940.0000	-1.4610E-8	-1.4610E-8	-1.290857E-10	-1.290857E-10	   19.8726	   20.3430	   59.7207	   12.2544	
 -950.0000	-1.4570E-8	-1.4570E-8	-1.276758E-10	-1.276758E-10	   19.8726	   20.3430	   59.7207	   12.2544	
 -960.0000	-1.4380E-8	-1.4380E-8	-1.252490E-10	-1.252490E-10	   19.9653	   20.3430	   59.7622	   12.2650	
 -970.0000	-1.3990E-8	-1.3990E-8	-1.254294E-10	-1.254294E-10	   20.0399	   20.3093	   59.7698	   12.2352	
 -980.0000	-1.5160E-8	-1.5160E-8	-1.278837E-10	-1.278837E-10	   20.0399	   20.3093	   59.7698	   12.2352	
 -990.0000	-1.5690E-8	-1.5690E-8	-1.291817E-10	-1.291817E-10	   20.1326	   20.3093	   59.7663	   12.2344	
-1000.0000	-1.6770E-8	-1.6770E-8	-1.276972E-10	-1.276972E-10	   20.1840	   20.3255	   59.7774	   12.2524	
