GCD Test
Bias: 5000.000000
IV_34341_013_PSS_HM_XX_DIODE
Date/Time: 4/28/2021 1:10:48 PM
Sensor Name: DIODE
Type: P
Annealing Status: Unirradiated
Environment: RT
Tester: Andrew Kent

Time Delay per Ramp Step (s): 0.500

CV Time Delay per Measurement (s) :0.500

AC Voltage (V): 0.500

Current Number of measurements per voltage: 1.000

IV Time Delay per Measurement (s) :0.000


BiasVoltage	Bias Current_Avg	Bias Current_0	Temperature	Air_Temp	Humidity	Dewpoint	
   -5.0000	-2.837855E-10	-2.837855E-10	   22.4010	   22.5708	   11.0164	   -9.3363	
  -10.0000	-2.896662E-10	-2.896662E-10	   22.4010	   22.5708	   11.0164	   -9.3363	
  -15.0000	-2.938591E-10	-2.938591E-10	   22.4010	   22.5736	   10.4238	  -10.0344	
  -20.0000	-3.000381E-10	-3.000381E-10	   22.4010	   22.5736	   10.4238	  -10.0344	
  -25.0000	-3.033333E-10	-3.033333E-10	   22.4010	   22.5700	    9.9402	  -10.6351	
  -30.0000	-3.083178E-10	-3.083178E-10	   22.4010	   22.5700	    9.9402	  -10.6351	
  -35.0000	-3.132910E-10	-3.132910E-10	   22.4010	   22.5664	    9.5291	  -11.1670	
  -40.0000	-3.183551E-10	-3.183551E-10	   22.4010	   22.5664	    9.5291	  -11.1670	
  -45.0000	-3.241336E-10	-3.241336E-10	   22.3984	   22.5661	    9.1806	  -11.6320	
  -50.0000	-3.321754E-10	-3.321754E-10	   22.3984	   22.5661	    9.1806	  -11.6320	
  -55.0000	-3.408650E-10	-3.408650E-10	   22.3984	   22.5611	    8.8928	  -12.0315	
  -60.0000	-3.503089E-10	-3.503089E-10	   22.3984	   22.5660	    8.7407	  -12.2416	
  -65.0000	-3.579704E-10	-3.579704E-10	   22.3984	   22.5660	    8.7407	  -12.2416	
  -70.0000	-3.662283E-10	-3.662283E-10	   22.3984	   22.5653	    8.5111	  -12.5712	
  -75.0000	-3.750319E-10	-3.750319E-10	   22.3984	   22.5653	    8.5111	  -12.5712	
  -80.0000	-3.796935E-10	-3.796935E-10	   22.3984	   22.5573	    8.3204	  -12.8566	
  -85.0000	-3.826068E-10	-3.826068E-10	   22.3984	   22.5630	    8.2185	  -13.0039	
  -90.0000	-3.884751E-10	-3.884751E-10	   22.3984	   22.5630	    8.2185	  -13.0039	
  -95.0000	-3.929445E-10	-3.929445E-10	   22.3984	   22.5606	    8.0262	  -13.2964	
 -100.0000	-3.960682E-10	-3.960682E-10	   22.3984	   22.5606	    8.0262	  -13.2964	
 -105.0000	-3.983467E-10	-3.983467E-10	   22.3958	   22.5574	    7.9039	  -13.4871	
 -110.0000	-4.003336E-10	-4.003336E-10	   22.3958	   22.5574	    7.9039	  -13.4871	
 -115.0000	-4.010365E-10	-4.010365E-10	   22.3984	   22.5596	    7.7818	  -13.6759	
 -120.0000	-4.019702E-10	-4.019702E-10	   22.3984	   22.5596	    7.7818	  -13.6759	
 -125.0000	-4.032489E-10	-4.032489E-10	   22.3958	   22.5590	    7.6828	  -13.8327	
 -130.0000	-4.044891E-10	-4.044891E-10	   22.3984	   22.5562	    7.6328	  -13.9145	
 -135.0000	-4.059045E-10	-4.059045E-10	   22.3984	   22.5562	    7.6328	  -13.9145	
 -140.0000	-4.066341E-10	-4.066341E-10	   22.3958	   22.5571	    7.5430	  -14.0580	
 -145.0000	-4.075093E-10	-4.075093E-10	   22.3958	   22.5571	    7.5430	  -14.0580	
 -150.0000	-4.087965E-10	-4.087965E-10	   22.3958	   22.5631	    7.4494	  -14.2057	
 -155.0000	-4.095223E-10	-4.095223E-10	   22.3958	   22.5653	    7.4111	  -14.2667	
 -160.0000	-4.115263E-10	-4.115263E-10	   22.3958	   22.5653	    7.4111	  -14.2667	
 -165.0000	-4.114614E-10	-4.114614E-10	   22.3958	   22.5615	    7.3517	  -14.3674	
 -170.0000	-4.125533E-10	-4.125533E-10	   22.3958	   22.5615	    7.3517	  -14.3674	
 -175.0000	-4.126642E-10	-4.126642E-10	   22.3958	   22.5591	    7.2849	  -14.4799	
 -180.0000	-4.142444E-10	-4.142444E-10	   22.3958	   22.5575	    7.2619	  -14.5196	
 -185.0000	-4.150018E-10	-4.150018E-10	   22.3958	   22.5575	    7.2619	  -14.5196	
 -190.0000	-4.163896E-10	-4.163896E-10	   22.3958	   22.5612	    7.2132	  -14.5985	
 -195.0000	-4.183415E-10	-4.183415E-10	   22.3958	   22.5612	    7.2132	  -14.5985	
 -200.0000	-4.194980E-10	-4.194980E-10	   22.3958	   22.5620	    7.1698	  -14.6709	
 -205.0000	-4.206766E-10	-4.206766E-10	   22.3933	   22.5639	    7.1259	  -14.7440	
 -210.0000	-4.226680E-10	-4.226680E-10	   22.3933	   22.5639	    7.1259	  -14.7440	
 -215.0000	-4.240884E-10	-4.240884E-10	   22.3958	   22.5615	    7.0968	  -14.7953	
 -220.0000	-4.264943E-10	-4.264943E-10	   22.3958	   22.5615	    7.0968	  -14.7953	
 -225.0000	-4.276443E-10	-4.276443E-10	   22.3958	   22.5576	    7.0683	  -14.8468	
 -230.0000	-4.288462E-10	-4.288462E-10	   22.3933	   22.5565	    7.0326	  -14.9089	
 -235.0000	-4.308678E-10	-4.308678E-10	   22.3933	   22.5565	    7.0326	  -14.9089	
 -240.0000	-4.319232E-10	-4.319232E-10	   22.3933	   22.5565	    7.0076	  -14.9520	
 -245.0000	-4.327031E-10	-4.327031E-10	   22.3933	   22.5565	    7.0076	  -14.9520	
 -250.0000	-4.342264E-10	-4.342264E-10	   22.3958	   22.5575	    6.9810	  -14.9971	
 -255.0000	-4.342809E-10	-4.342809E-10	   22.3958	   22.5575	    6.9810	  -14.9971	
 -260.0000	-4.364304E-10	-4.364304E-10	   22.3958	   22.5603	    6.9538	  -15.0422	
 -265.0000	-4.369921E-10	-4.369921E-10	   22.3933	   22.5606	    6.9326	  -15.0788	
 -270.0000	-4.376466E-10	-4.376466E-10	   22.3933	   22.5606	    6.9326	  -15.0788	
 -275.0000	-4.387664E-10	-4.387664E-10	   22.3933	   22.5573	    6.9099	  -15.1209	
 -280.0000	-4.389382E-10	-4.389382E-10	   22.3933	   22.5573	    6.9099	  -15.1209	
 -285.0000	-4.399777E-10	-4.399777E-10	   22.3958	   22.5570	    6.8953	  -15.1466	
 -290.0000	-4.407629E-10	-4.407629E-10	   22.3958	   22.5570	    6.8953	  -15.1466	
 -295.0000	-4.416174E-10	-4.416174E-10	   22.3933	   22.5633	    6.8846	  -15.1608	
 -300.0000	-4.422738E-10	-4.422738E-10	   22.3933	   22.5620	    6.8748	  -15.1790	
 -305.0000	-4.428714E-10	-4.428714E-10	   22.3933	   22.5620	    6.8748	  -15.1790	
 -310.0000	-4.432516E-10	-4.432516E-10	   22.3933	   22.5620	    6.8659	  -15.1945	
 -315.0000	-4.442261E-10	-4.442261E-10	   22.3933	   22.5620	    6.8659	  -15.1945	
 -320.0000	-4.453842E-10	-4.453842E-10	   22.3933	   22.5577	    6.8333	  -15.2550	
 -325.0000	-4.463181E-10	-4.463181E-10	   22.3933	   22.5577	    6.8333	  -15.2550	
 -330.0000	-4.465973E-10	-4.465973E-10	   22.3933	   22.5585	    6.8185	  -15.2806	
 -335.0000	-4.468717E-10	-4.468717E-10	   22.3933	   22.5585	    6.8185	  -15.2806	
 -340.0000	-4.474041E-10	-4.474041E-10	   22.3933	   22.5607	    6.8137	  -15.2875	
 -345.0000	-4.486040E-10	-4.486040E-10	   22.3933	   22.5561	    6.8033	  -15.3092	
 -350.0000	-4.484421E-10	-4.484421E-10	   22.3933	   22.5561	    6.8033	  -15.3092	
 -355.0000	-4.487125E-10	-4.487125E-10	   22.3933	   22.5626	    6.7736	  -15.3573	
 -360.0000	-4.496348E-10	-4.496348E-10	   22.3933	   22.5626	    6.7736	  -15.3573	
 -365.0000	-4.495172E-10	-4.495172E-10	   22.3933	   22.5612	    6.7631	  -15.3769	
 -370.0000	-4.500171E-10	-4.500171E-10	   22.3933	   22.5612	    6.7631	  -15.3769	
 -375.0000	-4.510929E-10	-4.510929E-10	   22.3933	   22.5632	    6.7527	  -15.3940	
 -380.0000	-4.514807E-10	-4.514807E-10	   22.3933	   22.5632	    6.7353	  -15.4250	
 -385.0000	-4.519353E-10	-4.519353E-10	   22.3933	   22.5632	    6.7353	  -15.4250	
 -390.0000	-4.525210E-10	-4.525210E-10	   22.3933	   22.5634	    6.7176	  -15.4565	
 -395.0000	-4.534554E-10	-4.534554E-10	   22.3933	   22.5634	    6.7176	  -15.4565	
 -400.0000	-4.540544E-10	-4.540544E-10	   22.3933	   22.5612	    6.6989	  -15.4916	
 -410.0000	-4.542038E-10	-4.542038E-10	   22.3933	   22.5612	    6.6939	  -15.5007	
 -420.0000	-4.553460E-10	-4.553460E-10	   22.3933	   22.5612	    6.6939	  -15.5007	
 -430.0000	-4.563475E-10	-4.563475E-10	   22.3933	   22.5667	    6.6758	  -15.5291	
 -440.0000	-4.577331E-10	-4.577331E-10	   22.3933	   22.5667	    6.6758	  -15.5291	
 -450.0000	-4.579755E-10	-4.579755E-10	   22.3933	   22.5635	    6.6578	  -15.5640	
 -460.0000	-4.588112E-10	-4.588112E-10	   22.3933	   22.5654	    6.6281	  -15.6163	
 -470.0000	-4.602906E-10	-4.602906E-10	   22.3933	   22.5654	    6.6281	  -15.6163	
 -480.0000	-4.611491E-10	-4.611491E-10	   22.3933	   22.5654	    6.6218	  -15.6278	
 -490.0000	-4.626068E-10	-4.626068E-10	   22.3933	   22.5654	    6.6218	  -15.6278	
 -500.0000	-4.622443E-10	-4.622443E-10	   22.3933	   22.5646	    6.6126	  -15.6451	
 -510.0000	-4.636352E-10	-4.636352E-10	   22.3933	   22.5646	    6.6126	  -15.6451	
 -520.0000	-4.639445E-10	-4.639445E-10	   22.3933	   22.5659	    6.5933	  -15.6792	
 -530.0000	-4.646104E-10	-4.646104E-10	   22.3933	   22.5655	    6.5882	  -15.6887	
 -540.0000	-4.666462E-10	-4.666462E-10	   22.3933	   22.5655	    6.5882	  -15.6887	
 -550.0000	-4.669460E-10	-4.669460E-10	   22.3933	   22.5646	    6.5696	  -15.7234	
 -560.0000	-4.670226E-10	-4.670226E-10	   22.3933	   22.5646	    6.5696	  -15.7234	
 -570.0000	-4.681238E-10	-4.681238E-10	   22.3933	   22.5605	    6.5553	  -15.7524	
 -580.0000	-4.676284E-10	-4.676284E-10	   22.3933	   22.5652	    6.5614	  -15.7380	
 -590.0000	-4.694545E-10	-4.694545E-10	   22.3933	   22.5652	    6.5614	  -15.7380	
 -600.0000	-4.698153E-10	-4.698153E-10	   22.3907	   22.5668	    6.5471	  -15.7629	
 -610.0000	-4.708223E-10	-4.708223E-10	   22.3907	   22.5668	    6.5471	  -15.7629	
 -620.0000	-4.715560E-10	-4.715560E-10	   22.3933	   22.5652	    6.5335	  -15.7890	
 -630.0000	-4.725955E-10	-4.725955E-10	   22.3933	   22.5652	    6.5335	  -15.7890	
 -640.0000	-4.739514E-10	-4.739514E-10	   22.3907	   22.5672	    6.5449	  -15.7667	
 -650.0000	-4.745322E-10	-4.745322E-10	   22.3907	   22.5669	    6.5424	  -15.7715	
 -660.0000	-4.752460E-10	-4.752460E-10	   22.3907	   22.5669	    6.5424	  -15.7715	
 -670.0000	-4.763330E-10	-4.763330E-10	   22.3933	   22.5672	    6.5534	  -15.7510	
 -680.0000	-4.770451E-10	-4.770451E-10	   22.3933	   22.5672	    6.5534	  -15.7510	
 -690.0000	-4.775718E-10	-4.775718E-10	   22.3907	   22.5647	    6.5354	  -15.7859	
 -700.0000	-4.782790E-10	-4.782790E-10	   22.3907	   22.5647	    6.5354	  -15.7859	
 -710.0000	-4.793151E-10	-4.793151E-10	   22.3933	   22.5655	    6.5468	  -15.7645	
 -720.0000	-4.811322E-10	-4.811322E-10	   22.3933	   22.5655	    6.5468	  -15.7645	
 -730.0000	-4.817114E-10	-4.817114E-10	   22.3933	   22.5675	    6.5490	  -15.7589	
 -740.0000	-4.818526E-10	-4.818526E-10	   22.3933	   22.5675	    6.5490	  -15.7589	
 -750.0000	-4.838960E-10	-4.838960E-10	   22.3933	   22.5699	    6.5281	  -15.7955	
 -760.0000	-4.841803E-10	-4.841803E-10	   22.3933	   22.5661	    6.5183	  -15.8163	
 -770.0000	-4.859745E-10	-4.859745E-10	   22.3933	   22.5661	    6.5183	  -15.8163	
 -780.0000	-4.862265E-10	-4.862265E-10	   22.3907	   22.5676	    6.5120	  -15.8268	
 -790.0000	-4.877504E-10	-4.877504E-10	   22.3907	   22.5676	    6.5120	  -15.8268	
 -800.0000	-4.890191E-10	-4.890191E-10	   22.3907	   22.5745	    6.5022	  -15.8398	
 -810.0000	-4.902073E-10	-4.902073E-10	   22.3933	   22.5669	    6.4861	  -15.8751	
 -820.0000	-4.922052E-10	-4.922052E-10	   22.3933	   22.5669	    6.4861	  -15.8751	
 -830.0000	-4.941874E-10	-4.941874E-10	   22.3933	   22.5669	    6.4772	  -15.8915	
 -840.0000	-4.952492E-10	-4.952492E-10	   22.3933	   22.5669	    6.4772	  -15.8915	
 -850.0000	-4.966136E-10	-4.966136E-10	   22.3933	   22.5736	    6.4962	  -15.8516	
 -860.0000	-4.985632E-10	-4.985632E-10	   22.3933	   22.5736	    6.4962	  -15.8516	
 -870.0000	-5.008017E-10	-5.008017E-10	   22.3933	   22.5688	    6.4911	  -15.8645	
 -880.0000	-5.025551E-10	-5.025551E-10	   22.3933	   22.5701	    6.4943	  -15.8576	
 -890.0000	-5.053201E-10	-5.053201E-10	   22.3933	   22.5701	    6.4943	  -15.8576	
 -900.0000	-5.071635E-10	-5.071635E-10	   22.3907	   22.5721	    6.4867	  -15.8702	
 -910.0000	-5.101252E-10	-5.101252E-10	   22.3907	   22.5721	    6.4867	  -15.8702	
 -920.0000	-5.127113E-10	-5.127113E-10	   22.3933	   22.5767	    6.4902	  -15.8604	
 -930.0000	-5.144689E-10	-5.144689E-10	   22.3933	   22.5723	    6.4889	  -15.8660	
 -940.0000	-5.181081E-10	-5.181081E-10	   22.3933	   22.5723	    6.4889	  -15.8660	
 -950.0000	-5.214020E-10	-5.214020E-10	   22.3933	   22.5784	    6.4820	  -15.8744	
 -960.0000	-5.257110E-10	-5.257110E-10	   22.3933	   22.5784	    6.4820	  -15.8744	
 -970.0000	-5.284123E-10	-5.284123E-10	   22.3933	   22.5753	    6.4760	  -15.8878	
 -980.0000	-5.326333E-10	-5.326333E-10	   22.3933	   22.5753	    6.4760	  -15.8878	
 -990.0000	-5.376544E-10	-5.376544E-10	   22.3933	   22.5765	    6.4775	  -15.8840	
-1000.0000	-5.414736E-10	-5.414736E-10	   22.3933	   22.5737	    6.4703	  -15.8995	
