38713_049_2-S_HM_XX_Irrad_20min
Date/Time: 4/21/2022 12:45:58 PM
Sensor Name: 38713_049_2-S_HM_XX
Station: Tesla
Annealing Status: 20 min
Environment: -20C
Tester: Eric Spencer
Notes: Irradiated at RINSC

Time Delay per Ramp Step (s): 1.000

CV Time Delay per Measurement (s) :0.500

AC Voltage (V): 0.500

Current Number of measurements per voltage: 4.000

IV Time Delay per Measurement (s) :0.500


BiasVoltage	LCR_Cp_freq1	LCR_G_freq1	Temperature	Air_Temp	Humidity	Dewpoint	
  -10.0000	1.667E-10	1.403E-6	  -20.0000	   27.0038	    1.3721	    0.0000	
  -20.0000	1.648E-10	1.082E-6	  -20.0000	   27.0038	    1.3721	    0.0000	
  -30.0000	1.575E-10	8.990E-7	  -20.0000	   27.0038	    1.3721	    0.0000	
  -40.0000	1.505E-10	7.748E-7	  -20.0000	   27.0038	    1.3721	    0.0000	
  -50.0000	1.439E-10	6.830E-7	  -20.0000	   27.0038	    1.3721	    0.0000	
  -60.0000	1.379E-10	6.121E-7	  -20.0000	   27.0038	    1.3721	    0.0000	
  -70.0000	1.327E-10	5.559E-7	  -20.0000	   27.0038	    1.3721	    0.0000	
  -80.0000	1.279E-10	5.136E-7	  -20.0000	   27.0038	    1.3721	    0.0000	
  -90.0000	1.235E-10	4.689E-7	  -20.0000	   27.0038	    1.3721	    0.0000	
 -100.0000	1.205E-10	4.438E-7	  -20.0000	   27.0038	    1.3721	    0.0000	
 -110.0000	1.164E-10	4.092E-7	  -20.0000	   27.0038	    1.3721	    0.0000	
 -120.0000	1.137E-10	3.930E-7	  -20.0000	   27.0038	    1.3721	    0.0000	
 -130.0000	1.115E-10	3.702E-7	  -20.0000	   27.0038	    1.3721	    0.0000	
 -140.0000	1.078E-10	3.502E-7	  -20.0000	   27.0038	    1.3721	    0.0000	
 -150.0000	1.053E-10	3.278E-7	  -20.0000	   27.0038	    1.3721	    0.0000	
 -160.0000	1.022E-10	3.204E-7	  -20.0000	   27.0038	    1.3721	    0.0000	
 -170.0000	1.001E-10	3.034E-7	  -20.0000	   27.0038	    1.3721	    0.0000	
 -180.0000	9.840E-11	2.900E-7	  -20.0000	   27.0038	    1.3721	    0.0000	
 -190.0000	9.632E-11	2.825E-7	  -20.0000	   27.0038	    1.3721	    0.0000	
 -200.0000	9.372E-11	2.680E-7	  -20.0000	   27.0038	    1.3721	    0.0000	
 -210.0000	9.165E-11	2.496E-7	  -20.0000	   27.0038	    1.3721	    0.0000	
 -220.0000	8.979E-11	2.495E-7	  -20.0000	   27.0038	    1.3721	    0.0000	
 -230.0000	8.850E-11	2.383E-7	  -20.0000	   27.0038	    1.3721	    0.0000	
 -240.0000	8.707E-11	2.352E-7	  -20.0000	   27.0038	    1.3721	    0.0000	
 -250.0000	8.475E-11	2.201E-7	  -20.0000	   27.0038	    1.3721	    0.0000	
 -260.0000	8.461E-11	2.186E-7	  -20.0000	   27.0038	    1.3721	    0.0000	
 -270.0000	8.382E-11	2.026E-7	  -20.0000	   27.0038	    1.3721	    0.0000	
 -280.0000	7.882E-11	1.930E-7	  -20.0000	   27.0038	    1.3721	    0.0000	
 -290.0000	7.997E-11	1.899E-7	  -20.0000	   27.0038	    1.3721	    0.0000	
 -300.0000	7.665E-11	1.764E-7	  -20.0000	   27.0038	    1.3721	    0.0000	
 -310.0000	7.531E-11	1.739E-7	  -20.0000	   27.0038	    1.3721	    0.0000	
 -320.0000	7.546E-11	1.629E-7	  -20.0000	   27.0038	    1.3721	    0.0000	
 -330.0000	7.432E-11	1.658E-7	  -20.0000	   27.0038	    1.3721	    0.0000	
 -340.0000	7.265E-11	1.486E-7	  -20.0000	   27.0038	    1.3721	    0.0000	
 -350.0000	6.743E-11	1.516E-7	  -20.0000	   27.0038	    1.3721	    0.0000	
 -360.0000	6.928E-11	1.349E-7	  -20.0000	   27.0038	    1.3721	    0.0000	
 -370.0000	7.026E-11	1.167E-7	  -20.0000	   27.0038	    1.3721	    0.0000	
 -380.0000	6.700E-11	1.250E-7	  -20.0000	   27.0038	    1.3721	    0.0000	
 -390.0000	6.480E-11	1.160E-7	  -20.0000	   27.0038	    1.3721	    0.0000	
 -400.0000	6.483E-11	1.243E-7	  -20.0000	   27.0038	    1.3721	    0.0000	
 -410.0000	6.077E-11	1.183E-7	  -20.0000	   27.0038	    1.3721	    0.0000	
 -420.0000	6.456E-11	9.534E-8	  -20.0000	   27.0038	    1.3721	    0.0000	
 -430.0000	6.264E-11	9.630E-8	  -20.0000	   27.0038	    1.3721	    0.0000	
 -440.0000	6.047E-11	9.042E-8	  -20.0000	   27.0038	    1.3721	    0.0000	
 -450.0000	5.823E-11	8.528E-8	  -20.0000	   27.0038	    1.3721	    0.0000	
 -460.0000	6.012E-11	8.698E-8	  -20.0000	   27.0038	    1.3721	    0.0000	
 -470.0000	5.640E-11	8.851E-8	  -20.0000	   27.0038	    1.3721	    0.0000	
 -480.0000	5.688E-11	6.497E-8	  -20.0000	   27.0038	    1.3721	    0.0000	
 -490.0000	5.620E-11	6.720E-8	  -20.0000	   27.0038	    1.3721	    0.0000	
 -500.0000	5.796E-11	6.012E-8	  -20.0000	   27.0038	    1.3721	    0.0000	
 -510.0000	5.658E-11	5.356E-8	  -20.0000	   27.0038	    1.3721	    0.0000	
 -520.0000	5.379E-11	4.454E-8	  -20.0000	   27.0038	    1.3721	    0.0000	
 -530.0000	5.565E-11	5.638E-8	  -20.0000	   27.0038	    1.3721	    0.0000	
 -540.0000	5.556E-11	4.536E-8	  -20.0000	   27.0038	    1.3721	    0.0000	
 -550.0000	5.750E-11	5.265E-8	  -20.0000	   27.0038	    1.3721	    0.0000	
 -560.0000	5.653E-11	5.814E-8	  -20.0000	   27.0038	    1.3721	    0.0000	
 -570.0000	5.215E-11	4.929E-8	  -20.0000	   27.0038	    1.3721	    0.0000	
 -580.0000	5.194E-11	5.552E-8	  -20.0000	   27.0038	    1.3721	    0.0000	
 -590.0000	5.758E-11	3.856E-8	  -20.0000	   27.0038	    1.3721	    0.0000	
 -600.0000	5.448E-11	3.478E-8	  -20.0000	   27.0038	    1.3721	    0.0000	
 -610.0000	5.293E-11	4.191E-8	  -20.0000	   27.0038	    1.3721	    0.0000	
 -620.0000	5.585E-11	6.041E-8	  -20.0000	   27.0038	    1.3721	    0.0000	
 -630.0000	5.344E-11	2.481E-8	  -20.0000	   27.0038	    1.3721	    0.0000	
 -640.0000	5.343E-11	2.128E-8	  -20.0000	   27.0038	    1.3721	    0.0000	
 -650.0000	5.215E-11	3.780E-8	  -20.0000	   27.0038	    1.3721	    0.0000	
 -660.0000	5.215E-11	3.069E-8	  -20.0000	   27.0038	    1.3721	    0.0000	
 -670.0000	5.204E-11	3.409E-9	  -20.0000	   27.0038	    1.3721	    0.0000	
 -680.0000	5.233E-11	3.599E-8	  -20.0000	   27.0038	    1.3721	    0.0000	
 -690.0000	4.856E-11	5.944E-8	  -20.0000	   27.0038	    1.3721	    0.0000	
 -700.0000	5.054E-11	2.333E-8	  -20.0000	   27.0038	    1.3721	    0.0000	
 -710.0000	5.063E-11	9.599E-9	  -20.0000	   27.0038	    1.3721	    0.0000	
 -720.0000	5.305E-11	2.593E-8	  -20.0000	   27.0038	    1.3721	    0.0000	
 -730.0000	4.974E-11	3.985E-8	  -20.0000	   27.0038	    1.3721	    0.0000	
 -740.0000	4.904E-11	3.132E-8	  -20.0000	   27.0038	    1.3721	    0.0000	
 -750.0000	5.098E-11	1.904E-8	  -20.0000	   27.0038	    1.3721	    0.0000	
 -760.0000	5.080E-11	2.324E-8	  -20.0000	   27.0038	    1.3721	    0.0000	
 -770.0000	4.930E-11	3.679E-8	  -20.0000	   27.0038	    1.3721	    0.0000	
 -780.0000	5.086E-11	4.234E-8	  -20.0000	   27.0038	    1.3721	    0.0000	
 -790.0000	5.407E-11	1.254E-8	  -20.0000	   27.0038	    1.3721	    0.0000	
 -800.0000	5.127E-11	8.508E-9	  -20.0000	   27.0038	    1.3721	    0.0000	
 -810.0000	5.620E-11	1.178E-8	  -20.0000	   27.0038	    1.3721	    0.0000	
 -820.0000	5.251E-11	2.926E-8	  -20.0000	   27.0038	    1.3721	    0.0000	
 -830.0000	5.401E-11	2.637E-8	  -20.0000	   27.0038	    1.3721	    0.0000	
 -840.0000	5.043E-11	2.915E-8	  -20.0000	   27.0038	    1.3721	    0.0000	
 -850.0000	5.191E-11	2.289E-8	  -20.0000	   27.0038	    1.3721	    0.0000	
 -860.0000	5.433E-11	1.785E-8	  -20.0000	   27.0038	    1.3721	    0.0000	
 -870.0000	5.322E-11	1.881E-8	  -20.0000	   27.0038	    1.3721	    0.0000	
 -880.0000	5.203E-11	2.656E-8	  -20.0000	   27.0038	    1.3721	    0.0000	
 -890.0000	5.165E-11	2.706E-8	  -20.0000	   27.0038	    1.3721	    0.0000	
 -900.0000	5.004E-11	7.014E-10	  -20.0000	   27.0038	    1.3721	    0.0000	
 -910.0000	5.174E-11	5.067E-9	  -20.0000	   27.0038	    1.3721	    0.0000	
 -920.0000	5.375E-11	3.272E-8	  -20.0000	   27.0038	    1.3721	    0.0000	
 -930.0000	5.305E-11	2.305E-8	  -20.0000	   27.0038	    1.3721	    0.0000	
 -940.0000	5.167E-11	2.841E-8	  -20.0000	   27.0038	    1.3721	    0.0000	
 -950.0000	5.215E-11	1.175E-8	  -20.0000	   27.0038	    1.3721	    0.0000	
 -960.0000	4.934E-11	3.606E-8	  -20.0000	   27.0038	    1.3721	    0.0000	
 -970.0000	5.217E-11	3.730E-8	  -20.0000	   27.0038	    1.3721	    0.0000	
 -980.0000	5.310E-11	1.270E-8	  -20.0000	   27.0038	    1.3721	    0.0000	
 -990.0000	5.180E-11	5.157E-9	  -20.0000	   27.0038	    1.3721	    0.0000	
-1000.0000	5.483E-11	3.314E-8	  -20.0000	   27.0038	    1.3721	    0.0000	
