GCD Test
Bias: 5000.000000
IV_38202_031_2-S_HM_XX_DIODEQUARTER
Date/Time: 4/4/2022 11:11:12 PM
Sensor Name: 
Type: P
Annealing Status: Not Irradiated
Environment: 0C
Tester: Andrew Kent

Time Delay per Ramp Step (s): 0.500

CV Time Delay per Measurement (s) :0.500

AC Voltage (V): 0.500

Current Number of measurements per voltage: 1.000

IV Time Delay per Measurement (s) :0.000


BiasVoltage	Total Current_Avg	Total Current_0	Bias Current_Avg	Bias Current_0	Temperature	Air_Temp	Humidity	Dewpoint	
  -10.0000	3.8900E-10	3.8900E-10	-4.274345E-11	-4.274345E-11	   19.9910	   21.0792	   23.2859	   -0.6941	
  -20.0000	2.5100E-10	2.5100E-10	-4.543264E-11	-4.543264E-11	   19.9910	   21.0762	   23.2859	   -0.6747	
  -30.0000	2.5000E-10	2.5000E-10	-4.901678E-11	-4.901678E-11	   19.9936	   21.0762	   23.3292	   -0.6747	
  -40.0000	2.4200E-10	2.4200E-10	-5.487309E-11	-5.487309E-11	   19.9961	   21.0737	   23.3292	   -0.6514	
  -50.0000	1.8700E-10	1.8700E-10	-6.052205E-11	-6.052205E-11	   19.9987	   21.0831	   23.3748	   -0.6272	
  -60.0000	7.6000E-11	7.6000E-11	-6.333187E-11	-6.333187E-11	   20.0013	   21.0831	   23.3909	   -0.6168	
  -70.0000	-5.0000E-12	-5.0000E-12	-6.458244E-11	-6.458244E-11	   20.0064	   21.0823	   23.4058	   -0.6080	
  -80.0000	-3.0000E-11	-3.0000E-11	-6.599316E-11	-6.599316E-11	   20.0064	   21.0837	   23.4058	   -0.5982	
  -90.0000	-3.8000E-11	-3.8000E-11	-6.826190E-11	-6.826190E-11	   20.0090	   21.0874	   23.4140	   -0.5903	
 -100.0000	-2.2600E-10	-2.2600E-10	-6.846972E-11	-6.846972E-11	   20.0116	   21.0860	   23.4298	   -0.5822	
 -110.0000	-1.1600E-10	-1.1600E-10	-6.937480E-11	-6.937480E-11	   20.0090	   21.0873	   23.4437	   -0.5730	
 -120.0000	-1.2600E-10	-1.2600E-10	-6.985861E-11	-6.985861E-11	   20.0090	   21.0881	   23.4538	   -0.5664	
 -130.0000	-1.6200E-10	-1.6200E-10	-7.026296E-11	-7.026296E-11	   20.0064	   21.0864	   23.4652	   -0.5612	
 -140.0000	-2.0300E-10	-2.0300E-10	-7.102159E-11	-7.102159E-11	   20.0039	   21.0876	   23.4712	   -0.5567	
 -150.0000	-2.2900E-10	-2.2900E-10	-7.108476E-11	-7.108476E-11	   19.9987	   21.0902	   23.4753	   -0.5521	
 -160.0000	-2.7300E-10	-2.7300E-10	-7.152028E-11	-7.152028E-11	   19.9910	   21.0901	   23.4905	   -0.5433	
 -170.0000	-3.3400E-10	-3.3400E-10	-7.240276E-11	-7.240276E-11	   19.9910	   21.0909	   23.5035	   -0.5351	
 -180.0000	-3.1500E-10	-3.1500E-10	-7.295282E-11	-7.295282E-11	   19.9884	   21.0899	   23.5133	   -0.5303	
 -190.0000	-3.4700E-10	-3.4700E-10	-7.323903E-11	-7.323903E-11	   19.9884	   21.0897	   23.5275	   -0.5221	
 -200.0000	-4.0500E-10	-4.0500E-10	-7.528510E-11	-7.528510E-11	   19.9910	   21.0897	   23.5386	   -0.5221	
 -210.0000	-3.8800E-10	-3.8800E-10	-7.641199E-11	-7.641199E-11	   19.9961	   21.0863	   23.5433	   -0.5185	
 -220.0000	-4.4300E-10	-4.4300E-10	-7.723482E-11	-7.723482E-11	   20.0013	   21.0958	   23.5446	   -0.5078	
 -230.0000	-4.8600E-10	-4.8600E-10	-7.790098E-11	-7.790098E-11	   20.0064	   21.0902	   23.5639	   -0.5117	
 -240.0000	-4.8000E-10	-4.8000E-10	-7.889569E-11	-7.889569E-11	   20.0064	   21.0913	   23.5639	   -0.4996	
 -250.0000	-4.8000E-10	-4.8000E-10	-7.882846E-11	-7.882846E-11	   20.0090	   21.0925	   23.5633	   -0.4990	
 -260.0000	-5.5100E-10	-5.5100E-10	-8.031067E-11	-8.031067E-11	   20.0090	   21.0971	   23.5566	   -0.4990	
 -270.0000	-5.3400E-10	-5.3400E-10	-8.063297E-11	-8.063297E-11	   20.0116	   21.0919	   23.5702	   -0.4955	
 -280.0000	-5.6900E-10	-5.6900E-10	-8.071140E-11	-8.071140E-11	   20.0116	   21.0922	   23.5765	   -0.4915	
 -290.0000	-5.7400E-10	-5.7400E-10	-8.173445E-11	-8.173445E-11	   20.0090	   21.0940	   23.5708	   -0.4933	
 -300.0000	-5.9800E-10	-5.9800E-10	-8.234335E-11	-8.234335E-11	   20.0064	   21.0965	   23.5715	   -0.4908	
 -310.0000	-6.0300E-10	-6.0300E-10	-8.272773E-11	-8.272773E-11	   19.9987	   21.0923	   23.5765	   -0.4914	
 -320.0000	-6.2700E-10	-6.2700E-10	-8.338796E-11	-8.338796E-11	   19.9961	   21.0946	   23.5686	   -0.4940	
 -330.0000	-6.3600E-10	-6.3600E-10	-8.382555E-11	-8.382555E-11	   19.9936	   21.0902	   23.5683	   -0.4979	
 -340.0000	-7.1900E-10	-7.1900E-10	-8.418285E-11	-8.418285E-11	   19.9884	   21.0952	   23.5787	   -0.4877	
 -350.0000	-7.9400E-10	-7.9400E-10	-8.442490E-11	-8.442490E-11	   19.9884	   21.0990	   23.5731	   -0.4878	
 -360.0000	-7.4200E-10	-7.4200E-10	-8.542242E-11	-8.542242E-11	   19.9884	   21.0935	   23.5848	   -0.4856	
 -370.0000	-7.1900E-10	-7.1900E-10	-8.554264E-11	-8.554264E-11	   19.9910	   21.0952	   23.5876	   -0.4825	
 -380.0000	-7.7000E-10	-7.7000E-10	-8.586878E-11	-8.586878E-11	   19.9936	   21.0959	   23.5854	   -0.4832	
 -390.0000	-7.3600E-10	-7.3600E-10	-8.625806E-11	-8.625806E-11	   20.0013	   21.0929	   23.5769	   -0.4907	
 -400.0000	-7.4600E-10	-7.4600E-10	-8.691381E-11	-8.691381E-11	   20.0064	   21.0929	   23.5898	   -0.4907	
 -420.0000	-9.6100E-10	-9.6100E-10	-8.751049E-11	-8.751049E-11	   20.0116	   21.0914	   23.5898	   -0.4845	
 -440.0000	-1.1110E-9	-1.1110E-9	-8.824770E-11	-8.824770E-11	   20.0116	   21.0944	   23.5816	   -0.4867	
 -460.0000	-1.1920E-9	-1.1920E-9	-8.870323E-11	-8.870323E-11	   20.0142	   21.0944	   23.5908	   -0.4814	
 -480.0000	-1.1830E-9	-1.1830E-9	-8.935103E-11	-8.935103E-11	   20.0142	   21.0863	   23.5854	   -0.4913	
 -500.0000	-1.2630E-9	-1.2630E-9	-8.980856E-11	-8.980856E-11	   20.0142	   21.0894	   23.5825	   -0.4904	
 -520.0000	-1.3130E-9	-1.3130E-9	-9.047612E-11	-9.047612E-11	   20.0116	   21.0948	   23.5781	   -0.4884	
 -540.0000	-1.4040E-9	-1.4040E-9	-9.104040E-11	-9.104040E-11	   20.0039	   21.0897	   23.5816	   -0.4906	
 -560.0000	-1.4460E-9	-1.4460E-9	-9.163423E-11	-9.163423E-11	   20.0039	   21.0897	   23.5816	   -0.4906	
 -580.0000	-1.6000E-9	-1.6000E-9	-9.200007E-11	-9.200007E-11	   19.9987	   21.0923	   23.5800	   -0.4894	
 -600.0000	-1.5410E-9	-1.5410E-9	-9.282861E-11	-9.282861E-11	   19.9936	   21.0919	   23.5769	   -0.4916	
 -620.0000	-1.6280E-9	-1.6280E-9	-9.398488E-11	-9.398488E-11	   19.9936	   21.0934	   23.5797	   -0.4887	
 -640.0000	-1.6320E-9	-1.6320E-9	-9.383471E-11	-9.383471E-11	   19.9884	   21.0890	   23.5791	   -0.4927	
 -660.0000	-1.6420E-9	-1.6420E-9	-9.464307E-11	-9.464307E-11	   19.9910	   21.0890	   23.5765	   -0.4927	
 -680.0000	-1.6990E-9	-1.6990E-9	-9.546544E-11	-9.546544E-11	   19.9910	   21.0923	   23.5765	   -0.4915	
 -700.0000	-1.7730E-9	-1.7730E-9	-9.637361E-11	-9.637361E-11	   19.9936	   21.0889	   23.5655	   -0.5007	
 -720.0000	-1.8470E-9	-1.8470E-9	-9.706583E-11	-9.706583E-11	   19.9961	   21.0866	   23.5689	   -0.5006	
 -740.0000	-1.8650E-9	-1.8650E-9	-9.755291E-11	-9.755291E-11	   20.0039	   21.0866	   23.5525	   -0.5006	
 -760.0000	-1.8520E-9	-1.8520E-9	-9.839668E-11	-9.839668E-11	   20.0039	   21.0951	   23.5525	   -0.5030	
 -780.0000	-1.9290E-9	-1.9290E-9	-9.908197E-11	-9.908197E-11	   20.0090	   21.0940	   23.5538	   -0.5032	
 -800.0000	-1.9360E-9	-1.9360E-9	-9.968389E-11	-9.968389E-11	   20.0142	   21.0938	   23.5436	   -0.5093	
 -820.0000	-1.9670E-9	-1.9670E-9	-1.007062E-10	-1.007062E-10	   20.0142	   21.0899	   23.5395	   -0.5149	
 -840.0000	-1.9820E-9	-1.9820E-9	-1.012515E-10	-1.012515E-10	   20.0142	   21.0919	   23.5364	   -0.5151	
 -860.0000	-2.1050E-9	-2.1050E-9	-1.021906E-10	-1.021906E-10	   20.0116	   21.0919	   23.5240	   -0.5151	
 -880.0000	-2.0710E-9	-2.0710E-9	-1.033287E-10	-1.033287E-10	   20.0116	   21.0945	   23.5240	   -0.5201	
 -900.0000	-2.1550E-9	-2.1550E-9	-1.044316E-10	-1.044316E-10	   20.0064	   21.0942	   23.5218	   -0.5216	
 -920.0000	-2.1600E-9	-2.1600E-9	-1.056666E-10	-1.056666E-10	   20.0013	   21.0942	   23.5098	   -0.5216	
 -940.0000	-2.1560E-9	-2.1560E-9	-1.070288E-10	-1.070288E-10	   20.0013	   21.0932	   23.5098	   -0.5294	
 -960.0000	-2.1880E-9	-2.1880E-9	-1.089180E-10	-1.089180E-10	   19.9961	   21.0953	   23.5066	   -0.5296	
 -980.0000	-2.3430E-9	-2.3430E-9	-1.101653E-10	-1.101653E-10	   19.9910	   21.0969	   23.4949	   -0.5350	
-1000.0000	-2.4190E-9	-2.4190E-9	-1.125178E-10	-1.125178E-10	   19.9884	   21.0928	   23.4911	   -0.5406	
