GCD Test
Bias: 5000.000000
IV_34341_012_PSS_HM_XX_DIODEHALFPSTOP_Irradiated
Date/Time: 9/8/2021 1:54:34 PM
Sensor Name: DIODEHALFPSTOP
Type: P
Annealing Status: Irradiated and Annealed at 60C for 80 min
Environment: -20C
Tester: Andrew Kent

Time Delay per Ramp Step (s): 1.000

CV Time Delay per Measurement (s) :0.500

AC Voltage (V): 0.500

Current Number of measurements per voltage: 4.000

IV Time Delay per Measurement (s) :0.000


BiasVoltage	Total Current_Avg	Total Current_0	Total Current_1	Total Current_2	Total Current_3	Bias Current_Avg	Bias Current_0	Bias Current_1	Bias Current_2	Bias Current_3	Temperature	Air_Temp	Humidity	Dewpoint	
  -10.0000	-3.1202E-9	-3.5200E-9	-3.2400E-9	-2.6720E-9	-3.0490E-9	-1.607629E-8	-1.339448E-8	-1.699652E-8	-1.695941E-8	-1.695476E-8	  -11.4766	   10.6980	   16.7423	  -13.5299	
  -20.0000	-7.9292E-9	-8.3310E-9	-7.9930E-9	-7.9820E-9	-7.4110E-9	-1.513645E-8	-2.087615E-8	-2.097516E-8	-9.236566E-9	-9.457938E-9	  -11.4638	   10.6980	   16.8197	  -13.4734	
  -30.0000	-1.5340E-8	-1.4960E-8	-1.5180E-8	-1.5470E-8	-1.5750E-8	-1.723414E-8	-1.704136E-8	-1.712580E-8	-1.727429E-8	-1.749510E-8	  -11.4332	   10.7068	   16.9617	  -13.3632	
  -40.0000	-2.5675E-8	-2.5590E-8	-2.5590E-8	-2.5750E-8	-2.5770E-8	-2.580285E-8	-2.566892E-8	-2.569982E-8	-2.590989E-8	-2.593278E-8	  -11.4256	   10.6917	   17.0171	  -13.3356	
  -50.0000	-3.4855E-8	-3.4780E-8	-3.4890E-8	-3.4980E-8	-3.4770E-8	-3.524684E-8	-3.521884E-8	-3.521610E-8	-3.527531E-8	-3.527712E-8	  -11.4128	   10.7346	   17.0550	  -13.2733	
  -60.0000	-4.4823E-8	-4.3970E-8	-4.4360E-8	-4.5030E-8	-4.5930E-8	-4.603750E-8	-4.586112E-8	-4.595231E-8	-4.611180E-8	-4.622478E-8	  -11.3975	   10.6908	   16.9918	  -13.3545	
  -70.0000	-6.0082E-8	-5.8360E-8	-5.8920E-8	-6.0950E-8	-6.2100E-8	-6.414322E-8	-6.381669E-8	-6.404510E-8	-6.421181E-8	-6.449928E-8	  -11.3797	   10.6756	   17.0117	  -13.3526	
  -80.0000	-7.9795E-8	-7.8890E-8	-7.9480E-8	-8.0140E-8	-8.0670E-8	-8.093666E-8	-8.060431E-8	-8.088210E-8	-8.098814E-8	-8.127208E-8	  -11.3312	   10.6575	   17.1278	  -13.2840	
  -90.0000	-9.5970E-8	-9.5990E-8	-9.5940E-8	-9.6000E-8	-9.5950E-8	-9.732444E-8	-9.705601E-8	-9.733897E-8	-9.745935E-8	-9.744343E-8	  -11.3134	   10.6575	   17.1799	  -13.2467	
 -100.0000	-1.1348E-7	-1.1210E-7	-1.1440E-7	-1.1440E-7	-1.1300E-7	-1.146930E-7	-1.140166E-7	-1.148435E-7	-1.148588E-7	-1.150532E-7	  -11.2853	   10.6562	   17.2027	  -13.2315	
 -110.0000	-1.3115E-7	-1.2970E-7	-1.3000E-7	-1.3220E-7	-1.3270E-7	-1.325874E-7	-1.321223E-7	-1.325791E-7	-1.326912E-7	-1.329569E-7	  -11.2624	   10.6562	   17.3039	  -13.1595	
 -120.0000	-1.5088E-7	-1.4860E-7	-1.5010E-7	-1.5200E-7	-1.5280E-7	-1.526889E-7	-1.524583E-7	-1.525675E-7	-1.526660E-7	-1.530636E-7	  -11.2369	   10.6734	   17.3472	  -13.1147	
 -130.0000	-1.7238E-7	-1.7060E-7	-1.7170E-7	-1.7340E-7	-1.7380E-7	-1.738221E-7	-1.732800E-7	-1.736102E-7	-1.739900E-7	-1.744081E-7	  -11.2037	   10.6611	   17.3400	  -13.1299	
 -140.0000	-1.9285E-7	-1.9330E-7	-1.9350E-7	-1.9230E-7	-1.9230E-7	-1.929050E-7	-1.925439E-7	-1.928050E-7	-1.930477E-7	-1.932236E-7	  -11.1859	   10.6427	   17.2948	  -13.1770	
 -150.0000	-2.1387E-7	-2.1170E-7	-2.1250E-7	-2.1510E-7	-2.1620E-7	-2.183384E-7	-2.174816E-7	-2.179464E-7	-2.187069E-7	-2.192186E-7	  -11.1604	   10.6301	   17.3257	  -13.1654	
 -160.0000	-2.4245E-7	-2.4130E-7	-2.4230E-7	-2.4250E-7	-2.4370E-7	-2.456384E-7	-2.446517E-7	-2.453325E-7	-2.460313E-7	-2.465382E-7	  -11.1298	   10.6213	   17.3033	  -13.1885	
 -170.0000	-2.7130E-7	-2.6740E-7	-2.6940E-7	-2.7340E-7	-2.7500E-7	-2.762335E-7	-2.755612E-7	-2.761291E-7	-2.763495E-7	-2.768944E-7	  -11.1145	   10.6120	   17.3422	  -13.1685	
 -180.0000	-3.0462E-7	-3.0230E-7	-3.0340E-7	-3.0550E-7	-3.0730E-7	-3.080799E-7	-3.073594E-7	-3.078363E-7	-3.084137E-7	-3.087101E-7	  -11.1017	   10.6361	   17.3868	  -13.1173	
 -190.0000	-3.3613E-7	-3.3380E-7	-3.3490E-7	-3.3640E-7	-3.3940E-7	-3.393858E-7	-3.393704E-7	-3.402350E-7	-3.407484E-7	-3.371892E-7	  -11.0839	   10.6712	   17.3789	  -13.0941	
 -200.0000	-3.6493E-7	-3.6100E-7	-3.6240E-7	-3.6600E-7	-3.7030E-7	-3.728850E-7	-3.712289E-7	-3.727250E-7	-3.730794E-7	-3.745065E-7	  -11.0737	   10.7041	   17.3814	  -13.0654	
 -210.0000	-4.0370E-7	-4.0210E-7	-4.0170E-7	-4.0390E-7	-4.0710E-7	-4.082877E-7	-4.064806E-7	-4.082151E-7	-4.084324E-7	-4.100228E-7	  -11.0660	   10.7041	   17.3776	  -13.0681	
 -220.0000	-4.3617E-7	-4.3350E-7	-4.3450E-7	-4.3740E-7	-4.3930E-7	-4.401072E-7	-4.396576E-7	-4.395562E-7	-4.403929E-7	-4.408222E-7	  -11.0558	   10.6910	   17.3201	  -13.1196	
 -230.0000	-4.6947E-7	-4.6720E-7	-4.6790E-7	-4.7040E-7	-4.7240E-7	-4.738716E-7	-4.722917E-7	-4.737937E-7	-4.742126E-7	-4.751884E-7	  -11.0354	   10.7016	   17.3197	  -13.1111	
 -240.0000	-5.1250E-7	-5.1150E-7	-5.1270E-7	-5.1210E-7	-5.1370E-7	-5.158125E-7	-5.149996E-7	-5.160012E-7	-5.157540E-7	-5.164953E-7	  -11.0252	   10.6859	   17.4184	  -13.0541	
 -250.0000	-5.5485E-7	-5.4920E-7	-5.5390E-7	-5.5710E-7	-5.5920E-7	-5.618573E-7	-5.581957E-7	-5.611259E-7	-5.646618E-7	-5.634458E-7	  -11.0176	   10.7075	   17.3782	  -13.0648	
 -260.0000	-5.9705E-7	-5.9190E-7	-5.9630E-7	-5.9890E-7	-6.0110E-7	-6.012636E-7	-6.009727E-7	-6.024542E-7	-6.008403E-7	-6.007871E-7	  -11.0125	   10.7048	   17.3808	  -13.0653	
 -270.0000	-6.3760E-7	-6.3310E-7	-6.3500E-7	-6.3980E-7	-6.4250E-7	-6.447171E-7	-6.426501E-7	-6.435561E-7	-6.458696E-7	-6.467927E-7	  -11.0150	   10.7287	   17.4820	  -12.9744	
 -280.0000	-6.8498E-7	-6.8250E-7	-6.8400E-7	-6.8520E-7	-6.8820E-7	-6.905662E-7	-6.894711E-7	-6.928627E-7	-6.902716E-7	-6.896593E-7	  -11.0176	   10.7019	   17.4731	  -13.0025	
 -290.0000	-7.3025E-7	-7.2410E-7	-7.3190E-7	-7.3160E-7	-7.3340E-7	-7.362715E-7	-7.336330E-7	-7.341945E-7	-7.382876E-7	-7.389710E-7	  -11.0125	   10.7149	   17.6341	  -12.8790	
 -300.0000	-7.7330E-7	-7.7000E-7	-7.7140E-7	-7.7460E-7	-7.7720E-7	-7.778356E-7	-7.782322E-7	-7.750774E-7	-7.781279E-7	-7.799047E-7	  -11.0048	   10.7273	   17.7751	  -12.7707	
 -310.0000	-8.1533E-7	-8.1250E-7	-8.1520E-7	-8.1650E-7	-8.1710E-7	-8.191472E-7	-8.186769E-7	-8.181952E-7	-8.190715E-7	-8.206452E-7	  -10.9971	   10.7271	   17.7609	  -12.7808	
 -320.0000	-8.6115E-7	-8.5900E-7	-8.6020E-7	-8.6150E-7	-8.6390E-7	-8.650687E-7	-8.642691E-7	-8.651141E-7	-8.648441E-7	-8.660476E-7	  -10.9716	   10.7044	   18.0057	  -12.6306	
 -330.0000	-9.0632E-7	-9.0150E-7	-9.0610E-7	-9.0770E-7	-9.1000E-7	-9.119424E-7	-9.106321E-7	-9.114117E-7	-9.125685E-7	-9.131572E-7	  -10.9538	   10.7044	   18.0006	  -12.6341	
 -340.0000	-9.7555E-7	-9.6090E-7	-9.8170E-7	-9.7830E-7	-9.8130E-7	-9.896730E-7	-9.856396E-7	-9.901239E-7	-9.908839E-7	-9.920448E-7	  -10.9334	   10.6712	   18.0019	  -12.6605	
 -350.0000	-1.0440E-6	-1.0390E-6	-1.0420E-6	-1.0450E-6	-1.0500E-6	-1.052444E-6	-1.049622E-6	-1.051660E-6	-1.053294E-6	-1.055199E-6	  -10.9079	   10.6841	   18.0089	  -12.6452	
 -360.0000	-1.1027E-6	-1.0990E-6	-1.1010E-6	-1.1020E-6	-1.1090E-6	-1.112606E-6	-1.109551E-6	-1.110685E-6	-1.115113E-6	-1.115076E-6	  -10.8900	   10.7209	   18.0180	  -12.6086	
 -370.0000	-1.1650E-6	-1.1610E-6	-1.1620E-6	-1.1660E-6	-1.1710E-6	-1.172954E-6	-1.171009E-6	-1.171443E-6	-1.174662E-6	-1.174701E-6	  -10.8620	   10.7185	   18.0013	  -12.6220	
 -380.0000	-1.2380E-6	-1.2250E-6	-1.2370E-6	-1.2430E-6	-1.2470E-6	-1.246546E-6	-1.243876E-6	-1.245253E-6	-1.247450E-6	-1.249605E-6	  -10.8339	   10.7365	   18.0218	  -12.5932	
 -390.0000	-1.3095E-6	-1.3000E-6	-1.3060E-6	-1.3120E-6	-1.3200E-6	-1.323354E-6	-1.320861E-6	-1.321880E-6	-1.325723E-6	-1.324952E-6	  -10.8212	   10.7586	   18.0791	  -12.5359	
 -400.0000	-1.3900E-6	-1.3820E-6	-1.3870E-6	-1.3930E-6	-1.3980E-6	-1.401805E-6	-1.399287E-6	-1.401139E-6	-1.402562E-6	-1.404233E-6	  -10.7982	   10.7650	   18.0357	  -12.5602	
 -410.0000	-1.4625E-6	-1.4560E-6	-1.4600E-6	-1.4650E-6	-1.4690E-6	-1.470200E-6	-1.467192E-6	-1.470290E-6	-1.471272E-6	-1.472045E-6	  -10.7702	   10.7329	   17.9598	  -12.6387	
 -420.0000	-1.5257E-6	-1.5220E-6	-1.5250E-6	-1.5280E-6	-1.5280E-6	-1.529997E-6	-1.526863E-6	-1.528673E-6	-1.530963E-6	-1.533489E-6	  -10.7472	   10.7593	   18.0212	  -12.5749	
 -430.0000	-1.5755E-6	-1.5770E-6	-1.5740E-6	-1.5740E-6	-1.5770E-6	-1.577243E-6	-1.576345E-6	-1.576998E-6	-1.577529E-6	-1.578099E-6	  -10.7370	   10.6738	   18.1192	  -12.5782	
 -440.0000	-1.6285E-6	-1.6270E-6	-1.6280E-6	-1.6290E-6	-1.6300E-6	-1.630348E-6	-1.628843E-6	-1.629531E-6	-1.630598E-6	-1.632418E-6	  -10.7242	   10.6876	   18.1233	  -12.5640	
 -450.0000	-1.6845E-6	-1.6800E-6	-1.6830E-6	-1.6860E-6	-1.6890E-6	-1.691770E-6	-1.688598E-6	-1.690005E-6	-1.693472E-6	-1.695007E-6	  -10.6936	   10.6929	   18.1705	  -12.5276	
 -460.0000	-1.7473E-6	-1.7430E-6	-1.7450E-6	-1.7480E-6	-1.7530E-6	-1.755164E-6	-1.752649E-6	-1.754148E-6	-1.755455E-6	-1.758403E-6	  -10.6783	   10.7047	   18.1293	  -12.5459	
 -470.0000	-1.8080E-6	-1.8050E-6	-1.8060E-6	-1.8080E-6	-1.8130E-6	-1.816291E-6	-1.814253E-6	-1.815376E-6	-1.817091E-6	-1.818446E-6	  -10.6630	   10.6827	   18.0383	  -12.6262	
 -480.0000	-1.8720E-6	-1.8690E-6	-1.8700E-6	-1.8720E-6	-1.8770E-6	-1.879597E-6	-1.876845E-6	-1.878769E-6	-1.880706E-6	-1.882069E-6	  -10.6528	   10.6907	   18.1167	  -12.5661	
 -490.0000	-1.9372E-6	-1.9340E-6	-1.9360E-6	-1.9390E-6	-1.9400E-6	-1.938928E-6	-1.937863E-6	-1.938848E-6	-1.939711E-6	-1.939291E-6	  -10.6350	   10.7114	   18.1765	  -12.5084	
 -500.0000	-1.9120E-6	-1.9340E-6	-1.8930E-6	-1.9070E-6	-1.9140E-6	-1.913071E-6	-1.913015E-6	-1.913880E-6	-1.913367E-6	-1.912022E-6	  -10.6299	   10.7227	   18.0987	  -12.5520	
 -510.0000	-1.9533E-6	-1.9500E-6	-1.9510E-6	-1.9550E-6	-1.9570E-6	-1.955438E-6	-1.954126E-6	-1.954794E-6	-1.956083E-6	-1.956748E-6	  -10.6120	   10.7179	   17.9741	  -12.6412	
 -520.0000	-2.0077E-6	-2.0040E-6	-2.0070E-6	-2.0090E-6	-2.0110E-6	-2.010588E-6	-2.009718E-6	-2.010524E-6	-2.011394E-6	-2.010717E-6	  -10.5967	   10.7244	   18.0376	  -12.5923	
 -530.0000	-2.0620E-6	-2.0570E-6	-2.0590E-6	-2.0640E-6	-2.0680E-6	-2.071188E-6	-2.068332E-6	-2.070160E-6	-2.072497E-6	-2.073764E-6	  -10.5865	   10.7176	   17.9889	  -12.6313	
 -540.0000	-2.1228E-6	-2.1230E-6	-2.1220E-6	-2.1220E-6	-2.1240E-6	-2.128883E-6	-2.126902E-6	-2.127402E-6	-2.129209E-6	-2.132019E-6	  -10.5814	   10.7172	   17.9731	  -12.6424	
 -550.0000	-2.1945E-6	-2.1910E-6	-2.1930E-6	-2.1960E-6	-2.1980E-6	-2.198856E-6	-2.196636E-6	-2.198002E-6	-2.199818E-6	-2.200969E-6	  -10.5738	   10.7358	   17.9624	  -12.6346	
 -560.0000	-2.2535E-6	-2.2510E-6	-2.2530E-6	-2.2570E-6	-2.2530E-6	-2.254428E-6	-2.250810E-6	-2.251989E-6	-2.254962E-6	-2.259950E-6	  -10.5763	   10.7358	   17.9532	  -12.6409	
 -570.0000	-2.3160E-6	-2.3120E-6	-2.3160E-6	-2.3170E-6	-2.3190E-6	-2.322109E-6	-2.320104E-6	-2.320583E-6	-2.322393E-6	-2.325356E-6	  -10.5789	   10.6900	   17.9671	  -12.6689	
 -580.0000	-2.3683E-6	-2.3590E-6	-2.3650E-6	-2.3730E-6	-2.3760E-6	-2.378000E-6	-2.378614E-6	-2.379025E-6	-2.376278E-6	-2.378083E-6	  -10.5814	   10.7270	   18.0620	  -12.5736	
 -590.0000	-2.4392E-6	-2.4330E-6	-2.4350E-6	-2.4420E-6	-2.4470E-6	-2.451818E-6	-2.447313E-6	-2.451039E-6	-2.452310E-6	-2.456610E-6	  -10.5789	   10.7552	   18.0911	  -12.5304	
 -600.0000	-2.5120E-6	-2.5050E-6	-2.5100E-6	-2.5160E-6	-2.5170E-6	-2.517198E-6	-2.516771E-6	-2.518522E-6	-2.516957E-6	-2.516543E-6	  -10.5738	   10.7503	   18.0550	  -12.5591	
 -610.0000	-2.5730E-6	-2.5640E-6	-2.5730E-6	-2.5760E-6	-2.5790E-6	-2.577960E-6	-2.575605E-6	-2.576983E-6	-2.579470E-6	-2.579782E-6	  -10.5687	   10.7660	   18.0794	  -12.5296	
 -620.0000	-2.6445E-6	-2.6380E-6	-2.6430E-6	-2.6460E-6	-2.6510E-6	-2.654363E-6	-2.650419E-6	-2.652991E-6	-2.656035E-6	-2.658007E-6	  -10.5687	   10.7655	   18.2170	  -12.4364	
 -630.0000	-2.7120E-6	-2.7100E-6	-2.7110E-6	-2.7120E-6	-2.7150E-6	-2.716298E-6	-2.712929E-6	-2.715097E-6	-2.716907E-6	-2.720258E-6	  -10.5661	   10.7836	   18.2249	  -12.4161	
 -640.0000	-2.7707E-6	-2.7670E-6	-2.7690E-6	-2.7730E-6	-2.7740E-6	-2.771214E-6	-2.772761E-6	-2.771442E-6	-2.770434E-6	-2.770218E-6	  -10.5559	   10.8064	   18.2043	  -12.4113	
 -650.0000	-2.8312E-6	-2.8240E-6	-2.8300E-6	-2.8350E-6	-2.8360E-6	-2.837128E-6	-2.835771E-6	-2.836141E-6	-2.837405E-6	-2.839197E-6	  -10.5381	   10.7758	   18.2887	  -12.3792	
 -660.0000	-2.8768E-6	-2.8720E-6	-2.8740E-6	-2.8780E-6	-2.8830E-6	-2.881444E-6	-2.882178E-6	-2.882268E-6	-2.881377E-6	-2.879952E-6	  -10.5253	   10.7810	   18.4263	  -12.2822	
 -670.0000	-2.9457E-6	-2.9380E-6	-2.9450E-6	-2.9490E-6	-2.9510E-6	-2.944675E-6	-2.945643E-6	-2.944756E-6	-2.945831E-6	-2.942469E-6	  -10.5100	   10.7964	   18.3767	  -12.3030	
 -680.0000	-3.0008E-6	-2.9970E-6	-2.9970E-6	-3.0020E-6	-3.0070E-6	-3.007020E-6	-3.004657E-6	-3.005078E-6	-3.007332E-6	-3.011013E-6	  -10.4921	   10.8070	   18.5256	  -12.1942	
 -690.0000	-3.0753E-6	-3.0690E-6	-3.0740E-6	-3.0790E-6	-3.0790E-6	-3.075025E-6	-3.077941E-6	-3.075907E-6	-3.075095E-6	-3.071155E-6	  -10.4845	   10.8062	   18.5528	  -12.1768	
 -700.0000	-3.1172E-6	-3.1150E-6	-3.1180E-6	-3.1180E-6	-3.1180E-6	-3.114540E-6	-3.113880E-6	-3.114116E-6	-3.115075E-6	-3.115088E-6	  -10.4641	   10.8378	   18.5484	  -12.1537	
 -710.0000	-3.1608E-6	-3.1560E-6	-3.1610E-6	-3.1610E-6	-3.1650E-6	-3.165023E-6	-3.163366E-6	-3.166402E-6	-3.166276E-6	-3.164047E-6	  -10.4513	   10.7913	   18.6066	  -12.1532	
 -720.0000	-3.2058E-6	-3.2010E-6	-3.2040E-6	-3.2080E-6	-3.2100E-6	-3.208318E-6	-3.209560E-6	-3.209715E-6	-3.207255E-6	-3.206742E-6	  -10.4386	   10.7806	   18.7207	  -12.0862	
 -730.0000	-3.2645E-6	-3.2610E-6	-3.2610E-6	-3.2640E-6	-3.2720E-6	-3.272031E-6	-3.269764E-6	-3.272120E-6	-3.272827E-6	-3.273414E-6	  -10.4258	   10.7804	   18.6679	  -12.1214	
 -740.0000	-3.3325E-6	-3.3270E-6	-3.3320E-6	-3.3350E-6	-3.3360E-6	-3.334959E-6	-3.334584E-6	-3.333057E-6	-3.335129E-6	-3.337065E-6	  -10.4080	   10.8012	   18.6588	  -12.1103	
 -750.0000	-3.3930E-6	-3.3900E-6	-3.3910E-6	-3.3930E-6	-3.3980E-6	-3.404323E-6	-3.400321E-6	-3.404763E-6	-3.406525E-6	-3.405683E-6	  -10.3978	   10.8012	   18.6929	  -12.0876	
 -760.0000	-3.4773E-6	-3.4520E-6	-3.4730E-6	-3.4920E-6	-3.4920E-6	-3.473126E-6	-3.483649E-6	-3.473994E-6	-3.468311E-6	-3.466550E-6	  -10.3774	   10.7932	   18.8359	  -11.9998	
 -770.0000	-3.5305E-6	-3.5240E-6	-3.5250E-6	-3.5330E-6	-3.5400E-6	-3.542758E-6	-3.541314E-6	-3.543033E-6	-3.542085E-6	-3.544600E-6	  -10.3723	   10.7921	   18.8109	  -12.0172	
 -780.0000	-3.6167E-6	-3.6110E-6	-3.6130E-6	-3.6180E-6	-3.6250E-6	-3.624131E-6	-3.625148E-6	-3.621421E-6	-3.626289E-6	-3.623665E-6	  -10.3595	   10.7260	   18.8163	  -12.0682	
 -790.0000	-3.6998E-6	-3.6960E-6	-3.6920E-6	-3.7050E-6	-3.7060E-6	-3.711758E-6	-3.701749E-6	-3.714238E-6	-3.715337E-6	-3.715706E-6	  -10.3518	   10.7260	   18.7008	  -12.1444	
 -800.0000	-3.7767E-6	-3.7690E-6	-3.7740E-6	-3.7810E-6	-3.7830E-6	-3.782080E-6	-3.777014E-6	-3.782876E-6	-3.781669E-6	-3.786761E-6	  -10.3442	   10.7605	   18.7511	  -12.0827	
 -810.0000	-3.8478E-6	-3.8430E-6	-3.8510E-6	-3.8610E-6	-3.8360E-6	-3.862868E-6	-3.837231E-6	-3.850763E-6	-3.880238E-6	-3.883240E-6	  -10.3263	   10.7410	   18.8479	  -12.0350	
 -820.0000	-3.9467E-6	-3.9390E-6	-3.9420E-6	-3.9500E-6	-3.9560E-6	-3.956654E-6	-3.955417E-6	-3.957481E-6	-3.956318E-6	-3.957401E-6	  -10.3212	   10.7045	   19.0092	  -11.9595	
 -830.0000	-4.0135E-6	-4.0170E-6	-4.0180E-6	-4.0150E-6	-4.0040E-6	-4.020982E-6	-4.009509E-6	-4.017660E-6	-4.025972E-6	-4.030785E-6	  -10.3161	   10.7377	   19.0117	  -11.9303	
 -840.0000	-4.0907E-6	-4.0740E-6	-4.0930E-6	-4.0980E-6	-4.0980E-6	-4.091155E-6	-4.093949E-6	-4.092039E-6	-4.090210E-6	-4.088422E-6	  -10.3034	   10.7575	   19.0234	  -11.9063	
 -850.0000	-4.1450E-6	-4.1410E-6	-4.1520E-6	-4.1450E-6	-4.1420E-6	-4.144007E-6	-4.143468E-6	-4.139522E-6	-4.146432E-6	-4.146606E-6	  -10.2932	   10.7910	   19.0019	  -11.8926	
 -860.0000	-4.2082E-6	-4.2010E-6	-4.2030E-6	-4.2130E-6	-4.2160E-6	-4.209610E-6	-4.210931E-6	-4.204157E-6	-4.207734E-6	-4.215616E-6	  -10.2855	   10.7887	   19.0038	  -11.8933	
 -870.0000	-4.2870E-6	-4.2950E-6	-4.2830E-6	-4.2890E-6	-4.2810E-6	-4.281209E-6	-4.280443E-6	-4.280771E-6	-4.281374E-6	-4.282250E-6	  -10.2779	   10.7771	   19.1891	  -11.7824	
 -880.0000	-4.3147E-6	-4.3180E-6	-4.3160E-6	-4.3140E-6	-4.3110E-6	-4.311728E-6	-4.308055E-6	-4.312825E-6	-4.312968E-6	-4.313066E-6	  -10.2651	   10.7951	   19.2584	  -11.7226	
 -890.0000	-4.3480E-6	-4.3470E-6	-4.3520E-6	-4.3500E-6	-4.3430E-6	-4.346661E-6	-4.346535E-6	-4.344998E-6	-4.345623E-6	-4.349488E-6	  -10.2549	   10.7781	   19.2081	  -11.7693	
 -900.0000	-4.3997E-6	-4.4090E-6	-4.4040E-6	-4.3930E-6	-4.3930E-6	-4.386110E-6	-4.385202E-6	-4.383319E-6	-4.386508E-6	-4.389413E-6	  -10.2473	   10.7650	   19.1777	  -11.7997	
 -910.0000	-4.4650E-6	-4.4560E-6	-4.4620E-6	-4.4680E-6	-4.4740E-6	-4.471424E-6	-4.470513E-6	-4.471379E-6	-4.473389E-6	-4.470416E-6	  -10.2345	   10.7795	   19.1831	  -11.7843	
 -920.0000	-4.5398E-6	-4.5360E-6	-4.5400E-6	-4.5400E-6	-4.5430E-6	-4.541160E-6	-4.541303E-6	-4.541607E-6	-4.541507E-6	-4.540223E-6	  -10.2269	   10.7737	   19.1040	  -11.8403	
 -930.0000	-4.5857E-6	-4.5840E-6	-4.5860E-6	-4.5900E-6	-4.5830E-6	-4.582413E-6	-4.580673E-6	-4.581661E-6	-4.583161E-6	-4.584159E-6	  -10.2192	   10.7602	   19.1085	  -11.8486	
 -940.0000	-4.6425E-6	-4.6400E-6	-4.6410E-6	-4.6440E-6	-4.6450E-6	-4.641527E-6	-4.642006E-6	-4.643456E-6	-4.641437E-6	-4.639209E-6	  -10.2064	   10.7626	   19.1110	  -11.8450	
 -950.0000	-4.7055E-6	-4.6950E-6	-4.6960E-6	-4.7120E-6	-4.7190E-6	-4.713055E-6	-4.711761E-6	-4.708692E-6	-4.712289E-6	-4.719478E-6	  -10.1988	   10.7618	   19.0813	  -11.8650	
 -960.0000	-4.7632E-6	-4.7590E-6	-4.7600E-6	-4.7630E-6	-4.7710E-6	-4.776059E-6	-4.774257E-6	-4.769324E-6	-4.773106E-6	-4.787550E-6	  -10.1911	   10.7372	   19.2100	  -11.8018	
 -970.0000	-4.8200E-6	-4.8240E-6	-4.8170E-6	-4.8210E-6	-4.8180E-6	-4.809204E-6	-4.810744E-6	-4.808970E-6	-4.809452E-6	-4.807649E-6	  -10.1809	   10.7537	   19.4886	  -11.6090	
 -980.0000	-4.8908E-6	-4.8880E-6	-4.8950E-6	-4.8870E-6	-4.8930E-6	-4.889373E-6	-4.889404E-6	-4.890887E-6	-4.888999E-6	-4.888200E-6	  -10.1656	   10.7743	   19.4428	  -11.6213	
 -990.0000	-4.9360E-6	-4.9320E-6	-4.9350E-6	-4.9380E-6	-4.9390E-6	-4.932718E-6	-4.931854E-6	-4.931042E-6	-4.932551E-6	-4.935424E-6	  -10.1605	   10.7838	   19.2849	  -11.7149	
-1000.0000	-4.9945E-6	-4.9860E-6	-4.9910E-6	-4.9960E-6	-5.0050E-6	-5.002563E-6	-5.007091E-6	-5.004799E-6	-5.001009E-6	-4.997354E-6	  -10.1554	   10.7921	   19.4304	  -11.6144	
