GCD Test
Bias: 5000.000000
IV_D0_CO138_LargeDiode_GRConnected_Irradiated_70min
Date/Time: 8/4/2021 11:14:16 AM
Sensor Name: CO138
Type: N
Annealing Status: Irradiated and Annealed at 60C for 70 minute
Environment: -20C
Tester: Andrew Kent

Time Delay per Ramp Step (s): 0.500

CV Time Delay per Measurement (s) :0.500

AC Voltage (V): 0.500

Current Number of measurements per voltage: 4.000

IV Time Delay per Measurement (s) :0.000


BiasVoltage	Total Current_Avg	Total Current_0	Total Current_1	Total Current_2	Total Current_3	Bias Current_Avg	Bias Current_0	Bias Current_1	Bias Current_2	Bias Current_3	Temperature	Air_Temp	Humidity	Dewpoint	
    1.0000	-4.0575E-10	-3.5500E-10	-3.6400E-10	-4.9700E-10	-4.0700E-10	-2.246633E-12	-2.035128E-12	-2.311566E-12	-2.401404E-12	-2.238433E-12	  -20.0465	   13.7234	    3.8378	  -28.1141	
    2.0000	-3.0525E-10	-2.4500E-10	-2.7600E-10	-2.7700E-10	-4.2300E-10	-1.987001E-12	-1.896400E-12	-1.837526E-12	-1.989089E-12	-2.224988E-12	  -20.0542	   13.7118	    3.8276	  -28.1504	
    3.0000	-2.5800E-10	-3.5100E-10	-1.8100E-10	-2.5400E-10	-2.4600E-10	-2.617796E-12	-2.950408E-12	-2.290992E-12	-2.495110E-12	-2.734676E-12	  -20.0542	   13.7118	    3.8276	  -28.1504	
    4.0000	-2.9325E-10	-3.4800E-10	-3.3900E-10	-3.2300E-10	-1.6300E-10	-2.366263E-12	-2.207266E-12	-2.153892E-12	-2.629154E-12	-2.474740E-12	  -20.0593	   13.7177	    3.7948	  -28.2386	
    5.0000	-2.1725E-10	-2.8200E-10	-2.6000E-10	-1.3000E-10	-1.9700E-10	-1.932202E-12	-1.777025E-12	-1.921049E-12	-2.382661E-12	-1.648074E-12	  -20.0542	   13.6660	    3.7717	  -28.3398	
    6.0000	-2.5425E-10	-1.6300E-10	-3.2500E-10	-2.6300E-10	-2.6600E-10	-1.252312E-12	-8.495215E-13	-9.880458E-13	-1.360228E-12	-1.811451E-12	  -20.0491	   13.6329	    3.7470	  -28.4328	
    7.0000	-1.8525E-10	-7.4000E-11	-1.5500E-10	-2.2500E-10	-2.8700E-10	-1.940860E-12	-2.287120E-12	-1.785376E-12	-1.808600E-12	-1.882343E-12	  -20.0364	   13.6157	    3.7249	  -28.5080	
    8.0000	-1.7350E-10	-2.6100E-10	-2.2800E-10	-1.3000E-10	-7.5000E-11	-1.687951E-12	-1.430102E-12	-2.191782E-12	-1.627499E-12	-1.502419E-12	  -20.0465	   13.6157	    3.7094	  -28.5525	
    9.0000	-1.4725E-10	-2.1200E-10	-2.2400E-10	-3.2000E-11	-1.2100E-10	-2.383882E-12	-2.850179E-12	-2.408123E-12	-2.018015E-12	-2.259211E-12	  -20.0593	   13.6204	    3.7100	  -28.5474	
   10.0000	-1.6650E-10	-2.6700E-10	-1.9300E-10	-1.8300E-10	-2.3000E-11	-1.537560E-12	-1.698187E-12	-1.264484E-12	-1.551922E-12	-1.635647E-12	  -20.0593	   13.6158	    3.7252	  -28.5070	
   20.0000	-6.2250E-11	-1.3500E-10	-6.0000E-11	-8.0000E-12	-4.6000E-11	-2.769815E-12	-2.521388E-12	-2.792936E-12	-2.841624E-12	-2.923312E-12	  -20.0669	   13.4871	    3.7109	  -28.6372	
   30.0000	-1.5250E-11	-9.3000E-11	8.0000E-11	-1.0000E-11	-3.8000E-11	-1.929349E-12	-1.891102E-12	-2.071387E-12	-2.171003E-12	-1.583904E-12	  -20.0822	   13.5096	    3.7071	  -28.6325	
   40.0000	-4.7250E-11	-4.4000E-11	-1.1100E-10	-1.0900E-10	7.5000E-11	-2.091606E-12	-1.535828E-12	-3.089338E-12	-1.922473E-12	-1.818784E-12	  -20.0516	   13.4861	    3.6803	  -28.7263	
   50.0000	1.3250E-11	-6.2000E-11	-4.7000E-11	1.2100E-10	4.1000E-11	-7.236776E-13	-5.009692E-13	-5.612680E-13	-4.109283E-13	-1.421545E-12	  -20.0465	   13.4610	    3.6673	  -28.7812	
   60.0000	7.1500E-11	-6.0000E-12	1.5900E-10	7.7000E-11	5.6000E-11	-3.200217E-13	-3.457404E-13	-1.057672E-13	-3.985019E-13	-4.300772E-13	  -20.0491	   13.4987	    3.6316	  -28.8593	
   70.0000	1.0950E-10	4.2000E-11	2.0700E-10	1.2000E-10	6.9000E-11	-5.365168E-13	-5.934545E-13	-9.933416E-13	-2.770892E-13	-2.821820E-13	  -20.0644	   13.4069	    3.5987	  -29.0195	
   80.0000	8.5250E-11	1.7500E-10	8.8000E-11	2.6000E-11	5.2000E-11	3.728931E-13	5.587256E-13	6.173932E-13	5.255215E-13	-2.100678E-13	  -20.0542	   13.4365	    3.6006	  -28.9934	
   90.0000	2.3050E-10	1.4500E-10	2.9300E-10	2.4600E-10	2.3800E-10	4.719976E-13	4.829469E-13	3.652044E-13	8.158033E-13	2.240357E-13	  -20.0440	   13.4179	    3.5980	  -29.0137	
  100.0000	3.9050E-10	9.9100E-10	2.9200E-10	1.2700E-10	1.5200E-10	2.060246E-12	2.140710E-12	2.116877E-12	2.120543E-12	1.862855E-12	  -20.0440	   13.4179	    3.5980	  -29.0137	
  120.0000	3.5375E-10	4.7100E-10	4.3700E-10	2.1500E-10	2.9200E-10	5.545462E-12	5.486182E-12	5.304681E-12	5.868337E-12	5.522648E-12	  -20.0287	   13.4282	    3.5705	  -29.0881	
  140.0000	6.6950E-10	5.0300E-10	5.5500E-10	5.4600E-10	 1.0740E-9	1.030074E-11	1.063588E-11	9.764429E-12	1.026820E-11	1.053444E-11	  -20.0237	   13.4309	    3.5449	  -29.1626	
  160.0000	6.8325E-10	6.5200E-10	6.5400E-10	6.3900E-10	7.8800E-10	1.725665E-11	1.413516E-11	1.583407E-11	1.912372E-11	1.993366E-11	  -20.0440	   13.4006	    3.5136	  -29.2775	
  180.0000	8.3300E-10	9.7700E-10	8.6500E-10	8.3600E-10	6.5400E-10	3.267617E-11	3.465493E-11	3.329967E-11	3.240132E-11	3.034878E-11	  -20.0287	   13.3969	    3.5145	  -29.2772	
  200.0000	 2.4673E-9	 2.2710E-9	 2.5130E-9	 2.5550E-9	 2.5300E-9	3.182702E-11	3.264087E-11	3.203893E-11	3.130558E-11	3.132269E-11	  -20.0262	   13.3681	    3.4953	  -29.3553	
  220.0000	 1.1920E-9	 1.1670E-9	 1.1540E-9	 1.2200E-9	 1.2270E-9	4.278558E-11	4.303197E-11	4.323180E-11	4.279770E-11	4.208086E-11	  -20.0084	   13.3395	    3.5145	  -29.3168	
  240.0000	 2.0225E-9	 2.0960E-9	 2.0410E-9	 2.0330E-9	 1.9200E-9	5.060098E-11	4.820815E-11	5.652548E-11	4.964184E-11	4.802847E-11	  -20.0186	   13.3140	    3.5120	  -29.3420	
  260.0000	 2.1632E-9	 2.2840E-9	 2.2490E-9	 2.0920E-9	 2.0280E-9	5.850810E-11	4.647254E-11	6.799721E-11	6.023498E-11	5.932765E-11	  -20.0211	   13.3738	    3.5054	  -29.3208	
  280.0000	 8.4643E-8	 3.8583E-8	 9.9996E-8	 9.9996E-8	 9.9996E-8	-2.153834E-11	-1.796579E-12	-7.835104E-11	-3.415684E-12	-2.590038E-12	  -20.0135	   13.3463	    3.4984	  -29.3608	
  300.0000	 3.1488E-6	 3.1570E-6	 3.1500E-6	 3.1450E-6	 3.1430E-6	5.833797E-11	5.929346E-11	5.976544E-11	5.756806E-11	5.672492E-11	  -20.0135	   13.3553	    3.4946	  -29.3661	
  320.0000	 3.3358E-6	 3.3200E-6	 3.3260E-6	 3.3430E-6	 3.3540E-6	5.605517E-11	5.772001E-11	5.643136E-11	5.510767E-11	5.496162E-11	  -20.0186	   13.3042	    3.4940	  -29.4032	
  340.0000	 3.5517E-6	 3.5530E-6	 3.5400E-6	 3.5510E-6	 3.5630E-6	6.172349E-11	6.243010E-11	6.261260E-11	6.166355E-11	6.018769E-11	  -20.0186	   13.2772	    3.5307	  -29.3113	
  360.0000	 3.7873E-6	 3.8040E-6	 3.7730E-6	 3.7710E-6	 3.8010E-6	6.559279E-11	6.311006E-11	6.311170E-11	6.290125E-11	7.324813E-11	  -20.0211	   13.2960	    3.5601	  -29.2105	
  380.0000	 4.0242E-6	 4.0280E-6	 4.0360E-6	 4.0250E-6	 4.0080E-6	7.427344E-11	7.481157E-11	7.500733E-11	7.431108E-11	7.296376E-11	  -19.9982	   13.2960	    3.5677	  -29.1879	
  400.0000	 4.2685E-6	 4.2610E-6	 4.2680E-6	 4.2740E-6	 4.2710E-6	8.128895E-11	8.139009E-11	8.040150E-11	8.218842E-11	8.117580E-11	  -19.9982	   13.2960	    3.5677	  -29.1879	
  420.0000	 4.5483E-6	 4.5390E-6	 4.5470E-6	 4.5640E-6	 4.5430E-6	7.897756E-11	7.923081E-11	7.854698E-11	7.883420E-11	7.929824E-11	  -20.0186	   13.2722	    3.5791	  -29.1706	
  440.0000	 0.0000E+0	 0.0000E+0	 0.0000E+0	 0.0000E+0	 0.0000E+0	0.000000E+0	0.000000E+0	0.000000E+0	0.000000E+0	0.000000E+0	    0.0000	    0.0000	    0.0000	    0.0000	
