GCD Test
Bias: 5000.000000
CV_34253_036_PSS_HM_XX_DIODEHALF
Date/Time: 4/26/2021 3:17:42 PM
Sensor Name: DIODEHALF
Type: P
Annealing Status: Unirradiated
Environment: RT
Tester: Andrew Kent

Time Delay per Ramp Step (s): 0.500

CV Time Delay per Measurement (s) :0.500

AC Voltage (V): 0.500

Current Number of measurements per voltage: 1.000

IV Time Delay per Measurement (s) :0.000


BiasVoltage	LCR_Cp_freqNaN	LCR_Rp_freqNaN	Temperature	Air_Temp	Humidity	Dewpoint	
   -5.0000	3.193E-11	1.546E+9	   23.0656	   23.3829	   18.0901	   -2.1982	
  -10.0000	2.408E-11	2.019E+9	   23.0656	   23.3844	   18.1006	   -2.1892	
  -15.0000	2.043E-11	2.277E+9	   23.0656	   23.3839	   18.1047	   -2.1865	
  -20.0000	1.822E-11	2.236E+9	   23.0656	   23.3833	   18.0939	   -2.1950	
  -25.0000	1.663E-11	2.418E+9	   23.0656	   23.3858	   18.0927	   -2.1939	
  -30.0000	1.542E-11	2.312E+9	   23.0656	   23.3842	   18.0772	   -2.2068	
  -35.0000	1.426E-11	2.242E+9	   23.0656	   23.3810	   18.0835	   -2.2047	
  -40.0000	1.314E-11	2.316E+9	   23.0656	   23.3819	   18.0791	   -2.2072	
  -45.0000	1.210E-11	2.548E+9	   23.0656	   23.3854	   18.0889	   -2.1970	
  -50.0000	1.139E-11	2.499E+9	   23.0656	   23.3854	   18.0892	   -2.1968	
  -55.0000	1.102E-11	2.569E+9	   23.0656	   23.3873	   18.1040	   -2.1842	
  -60.0000	1.057E-11	4.529E+8	   23.0656	   23.3800	   18.1022	   -2.1915	
  -65.0000	8.946E-12	9.770E+8	   23.0656	   23.3847	   18.1025	   -2.1875	
  -70.0000	8.787E-12	9.967E+8	   23.0656	   23.3862	   18.1018	   -2.1867	
  -75.0000	8.636E-12	1.015E+9	   23.0682	   23.3861	   18.1132	   -2.1784	
  -80.0000	8.505E-12	1.123E+9	   23.0656	   23.3826	   18.1202	   -2.1760	
  -85.0000	8.389E-12	1.187E+9	   23.0656	   23.3797	   18.1240	   -2.1755	
  -90.0000	8.286E-12	1.340E+9	   23.0656	   23.3852	   18.1278	   -2.1682	
  -95.0000	8.188E-12	1.431E+9	   23.0682	   23.3819	   18.1189	   -2.1775	
 -100.0000	8.102E-12	1.525E+9	   23.0656	   23.3833	   18.1072	   -2.1851	
 -105.0000	8.019E-12	1.536E+9	   23.0656	   23.3839	   18.0990	   -2.1907	
 -110.0000	7.940E-12	1.599E+9	   23.0656	   23.3864	   18.0999	   -2.1880	
 -115.0000	7.868E-12	1.687E+9	   23.0656	   23.3832	   18.1085	   -2.1842	
 -120.0000	7.804E-12	1.711E+9	   23.0656	   23.3852	   18.1053	   -2.1850	
 -125.0000	7.737E-12	1.728E+9	   23.0656	   23.3852	   18.1104	   -2.1812	
 -130.0000	7.681E-12	1.858E+9	   23.0656	   23.3798	   18.1126	   -2.1839	
 -135.0000	7.621E-12	1.829E+9	   23.0656	   23.3869	   18.1031	   -2.1852	
 -140.0000	7.574E-12	1.848E+9	   23.0656	   23.3840	   18.0968	   -2.1923	
 -145.0000	7.527E-12	1.876E+9	   23.0656	   23.3840	   18.0775	   -2.2067	
 -150.0000	7.479E-12	1.877E+9	   23.0656	   23.3863	   18.0762	   -2.2058	
 -155.0000	7.433E-12	1.937E+9	   23.0656	   23.3863	   18.0746	   -2.2070	
 -160.0000	7.390E-12	1.822E+9	   23.0656	   23.3904	   18.0651	   -2.2107	
 -165.0000	7.350E-12	1.895E+9	   23.0682	   23.3851	   18.0806	   -2.2034	
 -170.0000	7.308E-12	1.923E+9	   23.0656	   23.3812	   18.0895	   -2.2000	
 -175.0000	7.273E-12	1.964E+9	   23.0656	   23.3856	   18.0863	   -2.1988	
 -180.0000	7.238E-12	2.000E+9	   23.0656	   23.3854	   18.0816	   -2.2025	
 -185.0000	7.200E-12	1.989E+9	   23.0682	   23.3840	   18.0582	   -2.2211	
 -190.0000	7.166E-12	2.093E+9	   23.0682	   23.3840	   18.0582	   -2.2211	
 -195.0000	7.132E-12	2.138E+9	   23.0656	   23.3880	   18.0576	   -2.2183	
 -200.0000	7.096E-12	1.964E+9	   23.0656	   23.3863	   18.0538	   -2.2226	
 -205.0000	7.068E-12	2.085E+9	   23.0682	   23.3839	   18.0598	   -2.2200	
 -210.0000	7.038E-12	2.118E+9	   23.0656	   23.3866	   18.0835	   -2.2001	
 -215.0000	7.006E-12	2.118E+9	   23.0656	   23.3866	   18.0835	   -2.2001	
 -220.0000	6.973E-12	2.146E+9	   23.0656	   23.3879	   18.0832	   -2.1993	
 -225.0000	6.945E-12	2.228E+9	   23.0656	   23.3887	   18.0806	   -2.2005	
 -230.0000	6.915E-12	2.125E+9	   23.0656	   23.3883	   18.0879	   -2.1954	
 -235.0000	6.893E-12	2.155E+9	   23.0656	   23.3842	   18.0797	   -2.2049	
 -240.0000	6.867E-12	2.251E+9	   23.0656	   23.3867	   18.0806	   -2.2022	
 -245.0000	6.849E-12	2.257E+9	   23.0656	   23.3823	   18.0740	   -2.2107	
 -250.0000	6.837E-12	2.409E+9	   23.0656	   23.3840	   18.0727	   -2.2103	
 -255.0000	6.823E-12	2.217E+9	   23.0656	   23.3897	   18.0765	   -2.2028	
 -260.0000	6.812E-12	2.411E+9	   23.0656	   23.3887	   18.0585	   -2.2171	
 -265.0000	6.810E-12	2.382E+9	   23.0656	   23.3829	   18.0705	   -2.2128	
 -270.0000	6.802E-12	2.436E+9	   23.0656	   23.3907	   18.0705	   -2.2065	
 -275.0000	6.798E-12	2.386E+9	   23.0656	   23.3896	   18.0721	   -2.2062	
 -280.0000	6.792E-12	2.365E+9	   23.0656	   23.3867	   18.0746	   -2.2066	
 -285.0000	6.795E-12	2.545E+9	   23.0682	   23.3873	   18.0832	   -2.1998	
 -290.0000	6.789E-12	2.607E+9	   23.0656	   23.3871	   18.0841	   -2.1992	
 -295.0000	6.785E-12	2.679E+9	   23.0656	   23.3891	   18.0882	   -2.1945	
 -300.0000	6.786E-12	2.564E+9	   23.0656	   23.3879	   18.0844	   -2.1983	
 -305.0000	6.780E-12	2.604E+9	   23.0656	   23.3879	   18.0844	   -2.1983	
 -310.0000	6.781E-12	2.510E+9	   23.0682	   23.3899	   18.0762	   -2.2028	
 -315.0000	6.780E-12	2.645E+9	   23.0656	   23.3852	   18.0854	   -2.1998	
 -320.0000	6.781E-12	2.598E+9	   23.0656	   23.3912	   18.0908	   -2.1909	
 -325.0000	6.776E-12	2.682E+9	   23.0682	   23.3894	   18.0939	   -2.1900	
 -330.0000	6.775E-12	2.429E+9	   23.0656	   23.3884	   18.0844	   -2.1979	
 -335.0000	6.771E-12	2.631E+9	   23.0682	   23.3899	   18.0914	   -2.1915	
 -340.0000	6.772E-12	2.575E+9	   23.0682	   23.3875	   18.0724	   -2.2076	
 -345.0000	6.771E-12	2.544E+9	   23.0682	   23.3866	   18.0639	   -2.2147	
 -350.0000	6.769E-12	2.527E+9	   23.0656	   23.3868	   18.0604	   -2.2172	
 -355.0000	6.769E-12	2.585E+9	   23.0656	   23.3879	   18.0696	   -2.2094	
 -360.0000	6.767E-12	2.575E+9	   23.0656	   23.3879	   18.0778	   -2.2033	
 -365.0000	6.765E-12	2.666E+9	   23.0656	   23.3913	   18.0797	   -2.1991	
 -370.0000	6.768E-12	2.685E+9	   23.0682	   23.3889	   18.0848	   -2.1972	
 -375.0000	6.764E-12	2.694E+9	   23.0682	   23.3846	   18.0911	   -2.1961	
 -380.0000	6.763E-12	2.705E+9	   23.0682	   23.3846	   18.0911	   -2.1961	
 -385.0000	6.761E-12	2.677E+9	   23.0656	   23.3870	   18.0835	   -2.1998	
 -390.0000	6.764E-12	2.665E+9	   23.0656	   23.3856	   18.0816	   -2.2023	
 -395.0000	6.764E-12	2.495E+9	   23.0656	   23.3864	   18.0759	   -2.2060	
 -400.0000	6.765E-12	2.645E+9	   23.0682	   23.3898	   18.0715	   -2.2065	
 -410.0000	6.763E-12	2.567E+9	   23.0656	   23.3837	   18.0778	   -2.2067	
 -420.0000	6.759E-12	2.738E+9	   23.0656	   23.3870	   18.0825	   -2.2005	
 -430.0000	6.759E-12	2.671E+9	   23.0682	   23.3899	   18.0870	   -2.1948	
 -440.0000	6.759E-12	2.745E+9	   23.0682	   23.3913	   18.0942	   -2.1883	
 -450.0000	6.758E-12	2.885E+9	   23.0682	   23.3900	   18.0854	   -2.1959	
 -460.0000	6.757E-12	2.718E+9	   23.0656	   23.3925	   18.1003	   -2.1828	
 -470.0000	6.760E-12	2.590E+9	   23.0656	   23.3882	   18.0841	   -2.1983	
 -480.0000	6.756E-12	2.735E+9	   23.0682	   23.3948	   18.0886	   -2.1897	
 -490.0000	6.759E-12	2.735E+9	   23.0656	   23.3909	   18.0889	   -2.1926	
 -500.0000	6.756E-12	2.765E+9	   23.0656	   23.3929	   18.0848	   -2.1940	
 -510.0000	6.755E-12	2.730E+9	   23.0682	   23.3875	   18.0769	   -2.2043	
 -520.0000	6.753E-12	2.657E+9	   23.0682	   23.3918	   18.0832	   -2.1961	
 -530.0000	6.756E-12	2.815E+9	   23.0682	   23.3900	   18.0746	   -2.2040	
 -540.0000	6.751E-12	2.583E+9	   23.0656	   23.3934	   18.0848	   -2.1936	
 -550.0000	6.753E-12	2.795E+9	   23.0656	   23.3946	   18.0829	   -2.1940	
 -560.0000	6.752E-12	2.728E+9	   23.0656	   23.3918	   18.0889	   -2.1918	
 -570.0000	6.751E-12	2.808E+9	   23.0682	   23.3919	   18.0958	   -2.1866	
 -580.0000	6.750E-12	2.661E+9	   23.0682	   23.3919	   18.0946	   -2.1875	
 -590.0000	6.753E-12	2.662E+9	   23.0682	   23.3952	   18.0996	   -2.1811	
 -600.0000	6.752E-12	2.739E+9	   23.0682	   23.3966	   18.1018	   -2.1783	
