GCD Test
Bias: 5000.000000
CV_N4789_24_UR_DIODEQUARTER_GR_Irradiated_Annealed_60C_20min
Date/Time: 3/9/2022 6:37:02 PM
Sensor Name: 
Type: P
Annealing Status: Irradiated and Annealed at 60C for 20 minutes
Environment: 20C
Tester: Andrew Kent

Time Delay per Ramp Step (s): 0.500

CV Time Delay per Measurement (s) :0.500

AC Voltage (V): 0.500

Current Number of measurements per voltage: 1.000

IV Time Delay per Measurement (s) :0.000


BiasVoltage	LCR_Cp_freq1000.0	LCR_Cp_freq10000.0	LCR_Rp_freq1000.0	LCR_Rp_freq10000.0	Temperature	Air_Temp	Humidity	Dewpoint	
  -10.0000	1.119E-11	1.864E-12	8.402E+6	3.709E+6	   -0.0077	   14.8544	   27.9741	   -3.4848	
  -20.0000	9.165E-12	1.937E-12	1.213E+7	4.560E+6	   -0.0051	   14.8544	   27.9848	   -3.4797	
  -30.0000	7.844E-12	1.899E-12	1.519E+7	5.301E+6	   -0.0077	   14.8179	   27.9968	   -3.5054	
  -40.0000	6.946E-12	1.828E-12	1.771E+7	5.996E+6	   -0.0077	   14.8179	   28.0044	   -3.5017	
  -50.0000	6.268E-12	1.752E-12	1.993E+7	6.652E+6	   -0.0102	   14.8504	   28.0104	   -3.4709	
  -60.0000	5.742E-12	1.678E-12	2.195E+7	7.277E+6	   -0.0077	   14.7991	   28.0206	   -3.5102	
  -70.0000	5.303E-12	1.609E-12	2.384E+7	7.875E+6	   -0.0102	   14.7991	   28.0111	   -3.5147	
  -80.0000	4.938E-12	1.538E-12	2.558E+7	8.471E+6	   -0.0077	   14.7996	   28.0085	   -3.5155	
  -90.0000	4.629E-12	1.471E-12	2.727E+7	9.060E+6	   -0.0051	   14.8141	   27.9930	   -3.5104	
 -100.0000	4.354E-12	1.408E-12	2.887E+7	9.616E+6	   -0.0051	   14.7824	   28.0101	   -3.5296	
 -110.0000	4.111E-12	1.343E-12	3.043E+7	1.020E+7	   -0.0051	   14.7944	   28.0313	   -3.5092	
 -120.0000	3.919E-12	1.286E-12	3.219E+7	1.078E+7	   -0.0051	   14.7993	   28.0446	   -3.4986	
 -130.0000	3.700E-12	1.220E-12	3.388E+7	1.143E+7	   -0.0026	   14.7993	   28.0506	   -3.4957	
 -140.0000	3.483E-12	1.146E-12	3.595E+7	1.223E+7	   -0.0051	   14.7617	   28.0607	   -3.5232	
 -150.0000	3.193E-12	1.061E-12	3.814E+7	1.325E+7	   -0.0026	   14.7617	   28.0667	   -3.5204	
 -160.0000	2.971E-12	9.865E-13	4.103E+7	1.448E+7	   -0.0000	   14.7730	   28.0648	   -3.5116	
 -170.0000	2.755E-12	9.170E-13	4.452E+7	1.603E+7	    0.0026	   14.7538	   28.0680	   -3.5266	
 -180.0000	2.531E-12	8.562E-13	4.882E+7	1.794E+7	    0.0026	   14.7318	   28.0759	   -3.5418	
 -190.0000	2.313E-12	8.039E-13	5.364E+7	2.028E+7	    0.0026	   14.7447	   28.0642	   -3.5363	
 -200.0000	2.098E-12	7.620E-13	5.899E+7	2.302E+7	   -0.0026	   14.6999	   28.0857	   -3.5647	
 -220.0000	1.726E-12	7.023E-13	7.136E+7	2.955E+7	   -0.0026	   14.7154	   28.0886	   -3.5499	
 -240.0000	1.437E-12	6.660E-13	8.507E+7	3.682E+7	   -0.0051	   14.7233	   28.1044	   -3.5356	
 -260.0000	1.222E-12	6.439E-13	9.974E+7	4.420E+7	   -0.0000	   14.7296	   28.1009	   -3.5318	
 -280.0000	1.083E-12	6.305E-13	1.145E+8	5.098E+7	    0.0026	   14.7235	   28.1154	   -3.5302	
 -300.0000	9.918E-13	6.213E-13	1.275E+8	5.688E+7	    0.0026	   14.7446	   28.1395	   -3.5006	
 -320.0000	9.256E-13	6.153E-13	1.397E+8	6.170E+7	    0.0026	   14.7006	   28.1515	   -3.5328	
 -340.0000	8.770E-13	6.114E-13	1.500E+8	6.558E+7	   -0.0000	   14.6883	   28.1951	   -3.5227	
 -360.0000	8.357E-13	6.079E-13	1.587E+8	6.897E+7	   -0.0000	   14.6678	   28.2030	   -3.5366	
 -380.0000	8.124E-13	6.054E-13	1.660E+8	7.170E+7	   -0.0026	   14.6777	   28.2217	   -3.5193	
 -400.0000	7.953E-13	6.034E-13	1.720E+8	7.379E+7	   -0.0000	   14.6658	   28.2407	   -3.5205	
 -440.0000	7.643E-13	6.007E-13	1.814E+8	7.706E+7	   -0.0102	   14.6647	   28.2600	   -3.5124	
 -480.0000	7.414E-13	5.981E-13	1.857E+8	7.936E+7	   -0.0051	   14.6279	   28.2761	   -3.5364	
 -520.0000	7.296E-13	5.960E-13	1.879E+8	8.045E+7	   -0.0077	   14.6463	   28.2887	   -3.5147	
 -560.0000	7.140E-13	5.947E-13	1.862E+8	8.092E+7	   -0.0000	   14.6574	   28.3463	   -3.4779	
 -600.0000	7.047E-13	5.935E-13	1.841E+8	8.134E+7	   -0.0051	   14.6600	   28.3688	   -3.4651	
 -640.0000	6.946E-13	5.919E-13	1.802E+8	8.103E+7	   -0.0102	   14.6301	   28.3899	   -3.4809	
 -680.0000	6.851E-13	5.904E-13	1.758E+8	8.058E+7	   -0.0102	   14.6469	   28.4092	   -3.4573	
 -720.0000	6.721E-13	5.894E-13	1.694E+8	7.972E+7	   -0.0102	   14.6518	   28.4203	   -3.4479	
 -760.0000	6.678E-13	5.885E-13	1.639E+8	7.899E+7	   -0.0077	   14.6510	   28.4377	   -3.4405	
 -800.0000	6.598E-13	5.874E-13	1.568E+8	7.757E+7	   -0.0051	   14.6257	   28.4592	   -3.4522	
 -840.0000	6.488E-13	5.863E-13	1.507E+8	7.622E+7	   -0.0051	   14.6291	   28.4930	   -3.4333	
 -880.0000	6.407E-13	5.851E-13	1.430E+8	7.473E+7	   -0.0051	   14.6291	   28.4902	   -3.4347	
 -920.0000	6.313E-13	5.839E-13	1.358E+8	7.319E+7	   -0.0077	   14.6250	   28.5032	   -3.4344	
 -960.0000	6.245E-13	5.829E-13	1.284E+8	7.088E+7	   -0.0102	   14.6225	   28.4994	   -3.4361	
-1000.0000	6.129E-13	5.818E-13	1.201E+8	6.868E+7	   -0.0077	   14.6073	   28.5070	   -3.4456	
