GCD Test
Bias: 5000.000000
CV_38695_002_2-S_HM_XX_DIODEHALFPSTOP_GR_Irradiated_Annealed_60C_80min
Date/Time: 3/20/2022 5:16:16 PM
Sensor Name: 
Type: P
Annealing Status: Irradiated and Annealed at 60C for 80 minutes
Environment: -20C
Tester: Andrew Kent

Time Delay per Ramp Step (s): 1.000

CV Time Delay per Measurement (s) :0.500

AC Voltage (V): 0.500

Current Number of measurements per voltage: 4.000

IV Time Delay per Measurement (s) :0.000


BiasVoltage	LCR_Cp_freq1000.0	LCR_Cp_freq10000.0	LCR_Rp_freq1000.0	LCR_Rp_freq10000.0	Temperature	Air_Temp	Humidity	Dewpoint	
  -10.0000	1.110E-11	-4.131E-13	1.149E+7	5.579E+6	  -18.9017	    7.9744	    8.0617	  -24.1908	
  -20.0000	7.873E-12	-2.929E-13	1.701E+7	7.408E+6	  -19.1562	    7.8929	    7.1597	  -25.5618	
  -30.0000	6.317E-12	-2.401E-13	2.161E+7	8.494E+6	  -19.2579	    7.8982	    6.7657	  -26.1769	
  -40.0000	5.503E-12	-2.113E-13	2.528E+7	9.211E+6	  -19.3673	    7.9176	    6.3438	  -26.8624	
  -50.0000	4.941E-12	-1.856E-13	2.857E+7	9.890E+6	  -19.5302	    7.9130	    5.8390	  -27.7603	
  -60.0000	4.506E-12	-1.828E-13	3.151E+7	1.057E+7	  -19.5963	    7.9311	    5.6904	  -28.0237	
  -70.0000	4.086E-12	-1.837E-13	3.438E+7	1.124E+7	  -19.6497	    7.9183	    5.5079	  -28.3817	
  -80.0000	3.791E-12	-1.828E-13	3.709E+7	1.185E+7	  -19.7896	    7.9396	    5.2590	  -28.8590	
  -90.0000	3.533E-12	-1.811E-13	3.970E+7	1.251E+7	  -19.8507	    7.9485	    5.1654	  -29.0434	
 -100.0000	3.317E-12	-1.845E-13	4.222E+7	1.312E+7	  -19.9168	    7.9722	    5.0563	  -29.2526	
 -110.0000	3.123E-12	-1.902E-13	4.473E+7	1.375E+7	  -19.9880	    8.0166	    4.8978	  -29.5574	
 -120.0000	2.994E-12	-1.821E-13	4.741E+7	1.415E+7	  -20.0415	    8.0497	    4.8450	  -29.6480	
 -130.0000	2.847E-12	-1.684E-13	4.979E+7	1.483E+7	  -20.0898	    8.0497	    4.7590	  -29.8369	
 -140.0000	2.727E-12	-1.897E-13	5.218E+7	1.535E+7	  -20.1508	    8.0516	    4.6660	  -29.9036	
 -150.0000	2.591E-12	-1.979E-13	5.461E+7	1.579E+7	  -20.1941	    8.0307	    4.6461	  -30.1031	
 -160.0000	2.466E-12	-2.064E-13	5.726E+7	1.653E+7	  -20.2297	    8.0390	    4.6316	  -30.1300	
 -170.0000	2.340E-12	-2.153E-13	5.998E+7	1.714E+7	  -20.2602	    8.0041	    4.6199	  -30.1815	
 -180.0000	2.223E-12	-2.232E-13	6.285E+7	1.776E+7	  -20.3111	    8.0489	    4.5787	  -30.2434	
 -190.0000	2.120E-12	-2.295E-13	6.594E+7	1.840E+7	  -20.3263	    8.0474	    4.5658	  -30.2742	
 -200.0000	2.036E-12	-2.300E-13	6.906E+7	1.934E+7	  -20.3670	    8.0035	    4.5693	  -30.2975	
 -210.0000	1.940E-12	-2.444E-13	7.236E+7	1.991E+7	  -20.4332	    8.0015	    4.5648	  -30.3091	
 -220.0000	1.842E-12	-2.498E-13	7.628E+7	2.072E+7	  -20.4535	    8.0838	    4.5560	  -30.2708	
 -230.0000	1.763E-12	-2.561E-13	8.006E+7	2.148E+7	  -20.4764	    8.0838	    4.5228	  -30.3475	
 -240.0000	1.675E-12	-2.604E-13	8.432E+7	2.231E+7	  -20.4840	    8.0852	    4.4908	  -30.3736	
 -250.0000	1.596E-12	-2.643E-13	8.862E+7	2.314E+7	  -20.5018	    8.0741	    4.4861	  -30.4397	
 -260.0000	1.518E-12	-2.682E-13	9.321E+7	2.401E+7	  -20.4993	    8.0954	    4.4813	  -30.4356	
 -270.0000	1.441E-12	-2.720E-13	9.849E+7	2.496E+7	  -20.4942	    8.1184	    4.4690	  -30.4481	
 -280.0000	1.374E-12	-2.722E-13	1.032E+8	2.565E+7	  -20.4967	    8.1223	    4.5073	  -30.3560	
 -290.0000	1.297E-12	-2.751E-13	1.084E+8	2.658E+7	  -20.5018	    8.0906	    4.5237	  -30.3404	
 -300.0000	1.223E-12	-2.774E-13	1.144E+8	2.749E+7	  -20.4891	    8.0591	    4.5408	  -30.3234	
 -310.0000	1.175E-12	-2.768E-13	1.204E+8	2.810E+7	  -20.4713	    8.0866	    4.5316	  -30.3250	
 -320.0000	1.111E-12	-2.791E-13	1.261E+8	2.897E+7	  -20.4637	    8.1044	    4.5013	  -30.3827	
 -330.0000	1.056E-12	-2.790E-13	1.328E+8	2.964E+7	  -20.4560	    8.1073	    4.5079	  -30.3652	
 -340.0000	1.009E-12	-2.806E-13	1.404E+8	3.040E+7	  -20.4128	    8.0861	    4.5493	  -30.2844	
 -350.0000	9.581E-13	-2.815E-13	1.470E+8	3.104E+7	  -20.3950	    8.0786	    4.5591	  -30.2672	
 -360.0000	9.248E-13	-2.816E-13	1.550E+8	3.157E+7	  -20.3645	    8.0772	    4.5579	  -30.2711	
 -370.0000	8.779E-13	-2.837E-13	1.628E+8	3.225E+7	  -20.3340	    8.0473	    4.5633	  -30.2685	
 -380.0000	8.471E-13	-2.833E-13	1.702E+8	3.265E+7	  -20.3085	    8.0551	    4.5626	  -30.2760	
 -390.0000	8.243E-13	-2.840E-13	1.774E+8	3.328E+7	  -20.2780	    8.0387	    4.5683	  -30.2746	
 -400.0000	8.124E-13	-2.843E-13	1.849E+8	3.343E+7	  -20.2729	    8.0818	    4.5803	  -30.2163	
 -410.0000	7.885E-13	-2.851E-13	1.922E+8	3.370E+7	  -20.2093	    8.0513	    4.6044	  -30.1831	
 -420.0000	7.773E-13	-2.863E-13	1.986E+8	3.404E+7	  -20.1992	    8.0599	    4.6157	  -30.1510	
 -430.0000	7.669E-13	-2.854E-13	2.039E+8	3.449E+7	  -20.1661	    8.0878	    4.6167	  -30.1290	
 -440.0000	7.614E-13	-2.870E-13	2.088E+8	3.438E+7	  -20.1025	    8.0805	    4.6335	  -30.0961	
 -450.0000	7.579E-13	-2.864E-13	2.127E+8	3.448E+7	  -20.0822	    8.0719	    4.6515	  -30.0615	
 -460.0000	7.502E-13	-2.897E-13	2.170E+8	3.477E+7	  -20.0415	    8.0980	    4.6676	  -30.0064	
 -470.0000	7.501E-13	-2.890E-13	2.207E+8	3.485E+7	  -20.0211	    8.1070	    4.6739	  -29.9857	
 -480.0000	7.347E-13	-2.915E-13	2.215E+8	3.486E+7	  -20.0033	    8.1150	    4.7011	  -29.9189	
 -490.0000	7.383E-13	-2.912E-13	2.234E+8	3.487E+7	  -19.9753	    8.0583	    4.7030	  -29.9553	
 -500.0000	7.300E-13	-2.918E-13	2.248E+8	3.496E+7	  -19.9550	    8.0643	    4.7011	  -29.9552	
 -510.0000	7.330E-13	-2.914E-13	2.264E+8	3.493E+7	  -19.9346	    8.0689	    4.7046	  -29.9441	
 -520.0000	7.330E-13	-2.914E-13	2.281E+8	3.497E+7	  -19.9143	    8.0618	    4.6964	  -29.9676	
 -530.0000	7.296E-13	-2.920E-13	2.289E+8	3.506E+7	  -19.9066	    8.1330	    4.6866	  -29.9387	
 -540.0000	7.247E-13	-2.933E-13	2.306E+8	3.512E+7	  -19.8761	    8.1562	    4.6774	  -29.9427	
 -550.0000	7.184E-13	-2.939E-13	2.320E+8	3.522E+7	  -19.8838	    8.1413	    4.6977	  -29.9079	
 -560.0000	7.267E-13	-2.931E-13	2.318E+8	3.517E+7	  -19.8787	    8.1460	    4.6942	  -29.9123	
 -570.0000	7.205E-13	-2.937E-13	2.326E+8	3.525E+7	  -19.8710	    8.1202	    4.6692	  -29.9870	
 -580.0000	7.238E-13	-2.931E-13	2.334E+8	3.515E+7	  -19.8507	    8.1557	    4.6584	  -29.9858	
 -590.0000	7.230E-13	-2.944E-13	2.339E+8	3.528E+7	  -19.8456	    8.1557	    4.6414	  -30.0245	
 -600.0000	7.150E-13	-2.951E-13	2.332E+8	3.534E+7	  -19.8583	    8.2005	    4.6414	  -29.9924	
 -610.0000	7.126E-13	-2.955E-13	2.337E+8	3.536E+7	  -19.8761	    8.2058	    4.6240	  -30.0281	
 -620.0000	7.082E-13	-2.961E-13	2.339E+8	3.544E+7	  -19.8787	    8.1492	    4.6161	  -30.0865	
 -630.0000	7.072E-13	-2.967E-13	2.343E+8	3.550E+7	  -19.8736	    8.1685	    4.6015	  -30.1059	
 -640.0000	7.156E-13	-2.955E-13	2.341E+8	3.546E+7	  -19.8888	    8.2419	    4.5712	  -30.1231	
 -650.0000	7.148E-13	-2.964E-13	2.366E+8	3.548E+7	  -19.8965	    8.2289	    4.5689	  -30.1374	
 -660.0000	7.041E-13	-2.964E-13	2.350E+8	3.547E+7	  -19.9066	    8.2353	    4.5585	  -30.1568	
 -670.0000	7.063E-13	-2.967E-13	2.346E+8	3.556E+7	  -19.9194	    8.2145	    4.5623	  -30.1630	
 -680.0000	7.058E-13	-2.969E-13	2.358E+8	3.550E+7	  -19.9270	    8.2657	    4.5731	  -30.1017	
 -690.0000	7.086E-13	-2.965E-13	2.357E+8	3.556E+7	  -19.9295	    8.2022	    4.5708	  -30.1521	
 -700.0000	7.034E-13	-2.969E-13	2.354E+8	3.556E+7	  -19.9423	    8.1688	    4.5797	  -30.1557	
 -710.0000	7.058E-13	-2.973E-13	2.363E+8	3.562E+7	  -19.9652	    8.1838	    4.5949	  -30.1101	
 -720.0000	7.071E-13	-2.964E-13	2.370E+8	3.550E+7	  -19.9677	    8.2001	    4.6069	  -30.0711	
 -730.0000	7.026E-13	-2.974E-13	2.353E+8	3.558E+7	  -19.9957	    8.1968	    4.5854	  -30.1226	
 -740.0000	7.041E-13	-2.981E-13	2.367E+8	3.565E+7	  -20.0033	    8.1995	    4.5658	  -30.1656	
 -750.0000	7.034E-13	-2.992E-13	2.369E+8	3.580E+7	  -20.0160	    8.2180	    4.5544	  -30.1787	
 -760.0000	6.973E-13	-2.981E-13	2.371E+8	3.573E+7	  -20.0262	    8.2198	    4.5468	  -30.1949	
 -770.0000	6.958E-13	-2.994E-13	2.371E+8	3.585E+7	  -20.0313	    8.2269	    4.5022	  -30.2933	
 -780.0000	7.031E-13	-2.986E-13	2.366E+8	3.572E+7	  -20.0440	    8.2327	    4.4734	  -30.3563	
 -790.0000	6.988E-13	-2.992E-13	2.376E+8	3.577E+7	  -20.0491	    8.2778	    4.4557	  -30.3658	
 -800.0000	6.939E-13	-2.988E-13	2.390E+8	3.577E+7	  -20.0669	    8.2534	    4.4146	  -30.4803	
 -810.0000	6.976E-13	-2.997E-13	2.365E+8	3.583E+7	  -20.0669	    8.2546	    4.4007	  -30.5124	
 -820.0000	6.969E-13	-2.989E-13	2.370E+8	3.581E+7	  -20.0771	    8.2464	    4.4323	  -30.4433	
 -830.0000	6.953E-13	-2.992E-13	2.375E+8	3.578E+7	  -20.0822	    8.3113	    4.4592	  -30.3338	
 -840.0000	6.979E-13	-2.988E-13	2.392E+8	3.577E+7	  -20.0822	    8.2476	    4.4877	  -30.3124	
 -850.0000	6.879E-13	-3.007E-13	2.380E+8	3.597E+7	  -20.0796	    8.2476	    4.4908	  -30.3050	
 -860.0000	6.934E-13	-2.996E-13	2.366E+8	3.581E+7	  -20.0796	    8.2728	    4.4968	  -30.2738	
 -870.0000	6.826E-13	-3.002E-13	2.389E+8	3.590E+7	  -20.0822	    8.3052	    4.5016	  -30.2389	
 -880.0000	6.939E-13	-3.005E-13	2.377E+8	3.591E+7	  -20.0822	    8.3126	    4.4915	  -30.2573	
 -890.0000	6.872E-13	-3.019E-13	2.371E+8	3.604E+7	  -20.0720	    8.3180	    4.4769	  -30.2875	
 -900.0000	6.855E-13	-3.010E-13	2.385E+8	3.598E+7	  -20.0720	    8.2938	    4.4649	  -30.3328	
 -910.0000	6.847E-13	-3.017E-13	2.381E+8	3.603E+7	  -20.0771	    8.3018	    4.4526	  -30.3561	
 -920.0000	6.819E-13	-3.018E-13	2.390E+8	3.608E+7	  -20.0720	    8.2856	    4.4383	  -30.4013	
 -930.0000	6.810E-13	-3.032E-13	2.380E+8	3.620E+7	  -20.0720	    8.3096	    4.4481	  -30.3611	
 -940.0000	6.841E-13	-3.027E-13	2.372E+8	3.611E+7	  -20.0593	    8.3079	    4.4494	  -30.3593	
 -950.0000	6.863E-13	-3.009E-13	2.383E+8	3.600E+7	  -20.0567	    8.3105	    4.4551	  -30.3440	
 -960.0000	6.825E-13	-3.023E-13	2.384E+8	3.611E+7	  -20.0644	    8.2873	    4.4820	  -30.2975	
 -970.0000	6.921E-13	-3.009E-13	2.388E+8	3.592E+7	  -20.0593	    8.3153	    4.5019	  -30.2310	
 -980.0000	6.922E-13	-3.006E-13	2.387E+8	3.596E+7	  -20.0415	    8.2357	    4.5370	  -30.2062	
 -990.0000	6.863E-13	-3.026E-13	2.380E+8	3.608E+7	  -20.0389	    8.2252	    4.5569	  -30.2013	
-1000.0000	6.796E-13	-3.028E-13	2.387E+8	3.615E+7	  -20.0415	    8.2230	    4.5803	  -30.1155	
