GCD Test
Bias: 5000.000000
CV_34341_024_PSS_HM_XX_DIODEHALFPSTOP_Biased_Box
Date/Time: 7/22/2021 4:18:16 PM
Sensor Name: DIODEHALFPSTOP
Type: P
Annealing Status: Not Irradiated
Environment: 20C
Tester: Andrew Kent

Time Delay per Ramp Step (s): 0.500

CV Time Delay per Measurement (s) :0.500

AC Voltage (V): 0.500

Current Number of measurements per voltage: 1.000

IV Time Delay per Measurement (s) :0.000


BiasVoltage	LCR_Cp_freqNaN	LCR_Rp_freqNaN	Temperature	Air_Temp	Humidity	Dewpoint	
   -5.0000	2.055E-11	6.616E+8	   19.8520	   20.4515	   60.1278	   12.4597	
  -10.0000	1.615E-11	8.159E+8	   20.0193	   20.3405	   60.1126	   12.3515	
  -15.0000	1.412E-11	9.057E+8	   20.0193	   20.3405	   60.1126	   12.3515	
  -20.0000	1.290E-11	9.864E+8	   20.2072	   20.3268	   60.0908	   12.3332	
  -25.0000	1.205E-11	1.068E+9	   20.2458	   20.3373	   60.0727	   12.3385	
  -30.0000	1.145E-11	1.102E+9	   20.2510	   20.3237	   60.0614	   12.3228	
  -35.0000	1.094E-11	1.031E+9	   20.2175	   20.3500	   60.0304	   12.3396	
  -40.0000	1.053E-11	1.074E+9	   20.1480	   20.3347	   60.0329	   12.3259	
  -45.0000	1.019E-11	1.088E+9	   20.0708	   20.3588	   60.0225	   12.3459	
  -50.0000	9.904E-12	1.172E+9	   19.9730	   20.3456	   60.0041	   12.3289	
  -55.0000	9.658E-12	1.118E+9	   19.8958	   20.3173	   60.0269	   12.3081	
  -60.0000	9.437E-12	1.170E+9	   19.8057	   20.3173	   60.0297	   12.3088	
  -65.0000	9.242E-12	1.189E+9	   19.7671	   20.3219	   60.0436	   12.3166	
  -70.0000	9.062E-12	1.191E+9	   19.7542	   20.3265	   60.0623	   12.3257	
  -75.0000	8.912E-12	1.179E+9	   19.7774	   20.3458	   60.0816	   12.3487	
  -80.0000	8.757E-12	1.164E+9	   19.8263	   20.3562	   60.0822	   12.3586	
  -85.0000	8.608E-12	1.172E+9	   19.9112	   20.3386	   60.0930	   12.3448	
  -90.0000	8.482E-12	1.215E+9	   20.0039	   20.3301	   60.1436	   12.3496	
  -95.0000	8.376E-12	1.230E+9	   20.1068	   20.3134	   60.1486	   12.3352	
 -100.0000	8.278E-12	1.237E+9	   20.1918	   20.3309	   60.1461	   12.3510	
 -105.0000	8.174E-12	1.063E+9	   20.2561	   20.3361	   60.1404	   12.3544	
 -110.0000	8.055E-12	9.264E+8	   20.2844	   20.3262	   60.1139	   12.3384	
 -115.0000	7.911E-12	1.070E+9	   20.2767	   20.3286	   60.0829	   12.3328	
 -120.0000	7.808E-12	1.144E+9	   20.1969	   20.3442	   60.0465	   12.3383	
 -125.0000	7.736E-12	1.155E+9	   20.1197	   20.3442	   60.0538	   12.3383	
 -130.0000	7.648E-12	1.140E+9	   20.1197	   20.3411	   60.0538	   12.3372	
 -135.0000	7.587E-12	1.296E+9	   20.0322	   20.3319	   60.0063	   12.3166	
 -140.0000	7.523E-12	1.287E+9	   19.8469	   20.3127	   60.0259	   12.3035	
 -145.0000	7.474E-12	1.409E+9	   19.7799	   20.3385	   60.0342	   12.3298	
 -150.0000	7.417E-12	1.374E+9	   19.7645	   20.3376	   60.0572	   12.3348	
 -155.0000	7.365E-12	1.239E+9	   19.7954	   20.3231	   60.0784	   12.3266	
 -160.0000	7.321E-12	1.321E+9	   19.7954	   20.3231	   60.0784	   12.3266	
 -165.0000	7.266E-12	1.234E+9	   19.8546	   20.3436	   60.0958	   12.3502	
 -170.0000	7.222E-12	1.410E+9	   19.9447	   20.3436	   60.1275	   12.3582	
 -175.0000	7.182E-12	1.407E+9	   20.0528	   20.3257	   60.1154	   12.3383	
 -180.0000	7.138E-12	1.438E+9	   20.2381	   20.3338	   60.1366	   12.3513	
 -185.0000	7.106E-12	1.523E+9	   20.2870	   20.3325	   60.1028	   12.3415	
 -190.0000	7.071E-12	1.385E+9	   20.2999	   20.3382	   60.0262	   12.3275	
 -195.0000	7.027E-12	1.427E+9	   20.2535	   20.3516	   60.0212	   12.3388	
 -200.0000	6.991E-12	1.416E+9	   20.1712	   20.3298	   59.9911	   12.3107	
 -205.0000	6.966E-12	1.402E+9	   20.0579	   20.3298	   59.9738	   12.3063	
 -210.0000	6.937E-12	1.511E+9	   19.9601	   20.3344	   59.9807	   12.3124	
 -215.0000	6.900E-12	1.533E+9	   19.8777	   20.3256	   60.0041	   12.3101	
 -220.0000	6.862E-12	1.453E+9	   19.7902	   20.3274	   59.9889	   12.3079	
 -225.0000	6.848E-12	1.527E+9	   19.7645	   20.3134	   59.9975	   12.2969	
 -230.0000	6.828E-12	1.551E+9	   19.7825	   20.3366	   60.0572	   12.3339	
 -235.0000	6.807E-12	1.609E+9	   19.8340	   20.3452	   60.0661	   12.3442	
 -240.0000	6.789E-12	1.402E+9	   19.9292	   20.3283	   60.1195	   12.3418	
 -245.0000	6.785E-12	1.521E+9	   20.0245	   20.3379	   60.1284	   12.3531	
 -250.0000	6.776E-12	1.622E+9	   20.1763	   20.3287	   60.1360	   12.3464	
 -255.0000	6.763E-12	1.502E+9	   20.2561	   20.3372	   60.1271	   12.3521	
 -260.0000	6.766E-12	1.561E+9	   20.3230	   20.3073	   60.0917	   12.3151	
 -265.0000	6.767E-12	1.627E+9	   20.3333	   20.3397	   60.0740	   12.3410	
 -270.0000	6.755E-12	1.528E+9	   20.3024	   20.3403	   60.0746	   12.3418	
 -275.0000	6.763E-12	1.489E+9	   20.2484	   20.3462	   60.0392	   12.3383	
 -280.0000	6.752E-12	1.476E+9	   20.1506	   20.3462	   60.0402	   12.3386	
 -285.0000	6.756E-12	1.521E+9	   20.0605	   20.3552	   60.0367	   12.3462	
 -290.0000	6.752E-12	1.453E+9	   19.9653	   20.3255	   60.0411	   12.3193	
 -295.0000	6.750E-12	1.634E+9	   19.8932	   20.3328	   60.0104	   12.3184	
 -300.0000	6.746E-12	1.453E+9	   19.8443	   20.3329	   60.0019	   12.3164	
 -305.0000	6.750E-12	1.482E+9	   19.8185	   20.3503	   59.9750	   12.3259	
 -310.0000	6.745E-12	1.515E+9	   19.8288	   20.3707	   59.9624	   12.3418	
 -315.0000	6.743E-12	1.496E+9	   19.8623	   20.3294	   59.9734	   12.3059	
 -320.0000	6.746E-12	1.652E+9	   19.9241	   20.3356	   59.9817	   12.3138	
 -325.0000	6.740E-12	1.661E+9	   19.9936	   20.3388	   60.0022	   12.3220	
 -330.0000	6.738E-12	1.637E+9	   20.0734	   20.3262	   60.0304	   12.3173	
 -335.0000	6.734E-12	1.636E+9	   20.1815	   20.3262	   60.0753	   12.3286	
 -340.0000	6.744E-12	1.643E+9	   20.2252	   20.3282	   60.0512	   12.3245	
 -345.0000	6.736E-12	1.553E+9	   20.2432	   20.3320	   60.0307	   12.3228	
 -350.0000	6.738E-12	1.614E+9	   20.2432	   20.3320	   60.0307	   12.3228	
 -355.0000	6.737E-12	1.573E+9	   20.1557	   20.3317	   59.9554	   12.3034	
 -360.0000	6.737E-12	1.647E+9	   20.0734	   20.3350	   59.9260	   12.2991	
 -365.0000	6.742E-12	1.740E+9	   19.9678	   20.3296	   59.9399	   12.2975	
 -370.0000	6.733E-12	1.586E+9	   19.8597	   20.3446	   59.9611	   12.3171	
 -375.0000	6.732E-12	1.567E+9	   19.7748	   20.3446	   60.0130	   12.3302	
 -380.0000	6.728E-12	1.617E+9	   19.7362	   20.3221	   60.0082	   12.3079	
 -385.0000	6.725E-12	1.558E+9	   19.7259	   20.3317	   60.0206	   12.3199	
 -390.0000	6.728E-12	1.612E+9	   19.7542	   20.3409	   60.0275	   12.3304	
 -395.0000	6.726E-12	1.689E+9	   19.8134	   20.3110	   60.0655	   12.3120	
 -400.0000	6.732E-12	1.620E+9	   19.9112	   20.3454	   60.0705	   12.3455	
 -410.0000	6.725E-12	1.809E+9	   19.9112	   20.3454	   60.0705	   12.3455	
 -420.0000	6.724E-12	1.661E+9	   20.0605	   20.3323	   60.0522	   12.3286	
 -430.0000	6.725E-12	1.836E+9	   20.1763	   20.3503	   60.0244	   12.3384	
 -440.0000	6.723E-12	1.598E+9	   20.2613	   20.3342	   60.0092	   12.3194	
 -450.0000	6.721E-12	1.618E+9	   20.3153	   20.3360	   60.0022	   12.3194	
 -460.0000	6.724E-12	1.577E+9	   20.3205	   20.3632	   60.0082	   12.3464	
 -470.0000	6.720E-12	1.693E+9	   20.2844	   20.3430	   59.9760	   12.3193	
 -480.0000	6.717E-12	1.594E+9	   20.1326	   20.3294	   59.9564	   12.3015	
 -490.0000	6.721E-12	1.736E+9	   20.0347	   20.3215	   59.9579	   12.2945	
 -500.0000	6.719E-12	1.536E+9	   20.0347	   20.3215	   59.9579	   12.2945	
 -510.0000	6.722E-12	1.758E+9	   19.8340	   20.3436	   59.9380	   12.3102	
 -520.0000	6.716E-12	1.717E+9	   19.7825	   20.3321	   59.9583	   12.3045	
 -530.0000	6.724E-12	1.832E+9	   19.7696	   20.3361	   59.9586	   12.3084	
 -540.0000	6.720E-12	1.749E+9	   19.7980	   20.3549	   59.9583	   12.3260	
 -550.0000	6.717E-12	1.588E+9	   19.8623	   20.3372	   59.9779	   12.3143	
 -560.0000	6.716E-12	1.534E+9	   19.9575	   20.3206	   60.0202	   12.3095	
 -570.0000	6.712E-12	1.591E+9	   20.0553	   20.3381	   60.0338	   12.3294	
 -580.0000	6.712E-12	1.788E+9	   20.1583	   20.3312	   60.0500	   12.3270	
 -590.0000	6.715E-12	1.646E+9	   20.1583	   20.3312	   60.0500	   12.3270	
 -600.0000	6.720E-12	1.845E+9	   20.2690	   20.3312	   60.0161	   12.3184	
