38202_031_2-S_HM_XX_Irrad_20min
Date/Time: 4/29/2022 9:44:33 AM
Sensor Name: 38202_031_2-S_HM_XX
Station: Tesla
Annealing Status: 20 min
Environment: -20C
Tester: Eric Spencer
Notes: Irradiated at RINSC

Time Delay per Ramp Step (s): 1.000

CV Time Delay per Measurement (s) :0.500

AC Voltage (V): 0.500

Current Number of measurements per voltage: 4.000

IV Time Delay per Measurement (s) :0.500


BiasVoltage	LCR_Cp_freq1	LCR_G_freq1	Temperature	Air_Temp	Humidity	Dewpoint	
  -10.0000	1.540E-10	1.392E-6	  -20.0000	   27.8422	    1.3493	    0.0000	
  -20.0000	1.545E-10	1.099E-6	  -20.0000	   27.8422	    1.3493	    0.0000	
  -30.0000	1.496E-10	9.249E-7	  -20.0000	   27.8422	    1.3493	    0.0000	
  -40.0000	1.442E-10	8.084E-7	  -20.0000	   27.8422	    1.3493	    0.0000	
  -50.0000	1.385E-10	7.185E-7	  -20.0000	   27.8422	    1.3493	    0.0000	
  -60.0000	1.332E-10	6.487E-7	  -20.0000	   27.8422	    1.3493	    0.0000	
  -70.0000	1.286E-10	5.926E-7	  -20.0000	   27.8422	    1.3493	    0.0000	
  -80.0000	1.246E-10	5.446E-7	  -20.0000	   27.8422	    1.3493	    0.0000	
  -90.0000	1.205E-10	5.206E-7	  -20.0000	   27.8422	    1.3493	    0.0000	
 -100.0000	1.175E-10	4.706E-7	  -20.0000	   27.8422	    1.3493	    0.0000	
 -110.0000	1.141E-10	4.497E-7	  -20.0000	   27.8422	    1.3493	    0.0000	
 -120.0000	1.108E-10	4.221E-7	  -20.0000	   27.8422	    1.3493	    0.0000	
 -130.0000	1.071E-10	4.094E-7	  -20.0000	   27.8422	    1.3493	    0.0000	
 -140.0000	1.069E-10	3.861E-7	  -20.0000	   27.8422	    1.3493	    0.0000	
 -150.0000	1.047E-10	3.640E-7	  -20.0000	   27.8422	    1.3493	    0.0000	
 -160.0000	1.001E-10	3.482E-7	  -20.0000	   27.8422	    1.3493	    0.0000	
 -170.0000	9.825E-11	3.338E-7	  -20.0000	   27.8422	    1.3493	    0.0000	
 -180.0000	9.549E-11	3.202E-7	  -20.0000	   27.8422	    1.3493	    0.0000	
 -190.0000	9.401E-11	3.089E-7	  -20.0000	   27.8422	    1.3493	    0.0000	
 -200.0000	9.458E-11	2.720E-7	  -20.0000	   27.8422	    1.3493	    0.0000	
 -210.0000	9.256E-11	2.776E-7	  -20.0000	   27.8422	    1.3493	    0.0000	
 -220.0000	8.943E-11	2.739E-7	  -20.0000	   27.8422	    1.3493	    0.0000	
 -230.0000	8.798E-11	2.628E-7	  -20.0000	   27.8422	    1.3493	    0.0000	
 -240.0000	8.508E-11	2.620E-7	  -20.0000	   27.8422	    1.3493	    0.0000	
 -250.0000	8.458E-11	2.277E-7	  -20.0000	   27.8422	    1.3493	    0.0000	
 -260.0000	8.484E-11	2.390E-7	  -20.0000	   27.8422	    1.3493	    0.0000	
 -270.0000	8.269E-11	2.325E-7	  -20.0000	   27.8422	    1.3493	    0.0000	
 -280.0000	8.023E-11	2.082E-7	  -20.0000	   27.8422	    1.3493	    0.0000	
 -290.0000	8.095E-11	2.135E-7	  -20.0000	   27.8422	    1.3493	    0.0000	
 -300.0000	7.334E-11	2.098E-7	  -20.0000	   27.8422	    1.3493	    0.0000	
 -310.0000	7.279E-11	1.915E-7	  -20.0000	   27.8422	    1.3493	    0.0000	
 -320.0000	7.659E-11	1.855E-7	  -20.0000	   27.8422	    1.3493	    0.0000	
 -330.0000	7.595E-11	1.708E-7	  -20.0000	   27.8422	    1.3493	    0.0000	
 -340.0000	7.155E-11	1.598E-7	  -20.0000	   27.8422	    1.3493	    0.0000	
 -350.0000	6.893E-11	1.529E-7	  -20.0000	   27.8422	    1.3493	    0.0000	
 -360.0000	6.942E-11	1.618E-7	  -20.0000	   27.8422	    1.3493	    0.0000	
 -370.0000	6.674E-11	1.465E-7	  -20.0000	   27.8422	    1.3493	    0.0000	
 -380.0000	6.319E-11	1.214E-7	  -20.0000	   27.8422	    1.3493	    0.0000	
 -390.0000	6.673E-11	1.347E-7	  -20.0000	   27.8422	    1.3493	    0.0000	
 -400.0000	6.528E-11	1.189E-7	  -20.0000	   27.8422	    1.3493	    0.0000	
 -410.0000	6.603E-11	1.194E-7	  -20.0000	   27.8422	    1.3493	    0.0000	
 -420.0000	6.069E-11	9.460E-8	  -20.0000	   27.8422	    1.3493	    0.0000	
 -430.0000	6.410E-11	1.093E-7	  -20.0000	   27.8422	    1.3493	    0.0000	
 -440.0000	6.021E-11	1.144E-7	  -20.0000	   27.8422	    1.3493	    0.0000	
 -450.0000	6.230E-11	9.250E-8	  -20.0000	   27.8422	    1.3493	    0.0000	
 -460.0000	6.134E-11	8.063E-8	  -20.0000	   27.8422	    1.3493	    0.0000	
 -470.0000	6.120E-11	9.044E-8	  -20.0000	   27.8422	    1.3493	    0.0000	
 -480.0000	5.580E-11	9.102E-8	  -20.0000	   27.8422	    1.3493	    0.0000	
 -490.0000	5.664E-11	1.025E-7	  -20.0000	   27.8422	    1.3493	    0.0000	
 -500.0000	5.816E-11	7.038E-8	  -20.0000	   27.8422	    1.3493	    0.0000	
 -510.0000	5.733E-11	6.135E-8	  -20.0000	   27.8422	    1.3493	    0.0000	
 -520.0000	5.446E-11	9.485E-8	  -20.0000	   27.8422	    1.3493	    0.0000	
 -530.0000	4.971E-11	6.093E-8	  -20.0000	   27.8422	    1.3493	    0.0000	
 -540.0000	5.398E-11	7.184E-8	  -20.0000	   27.8422	    1.3493	    0.0000	
 -550.0000	5.594E-11	6.446E-8	  -20.0000	   27.8422	    1.3493	    0.0000	
 -560.0000	5.340E-11	6.088E-8	  -20.0000	   27.8422	    1.3493	    0.0000	
 -570.0000	5.413E-11	5.875E-8	  -20.0000	   27.8422	    1.3493	    0.0000	
 -580.0000	5.169E-11	5.496E-8	  -20.0000	   27.8422	    1.3493	    0.0000	
 -590.0000	5.900E-11	4.374E-8	  -20.0000	   27.8422	    1.3493	    0.0000	
 -600.0000	5.562E-11	1.761E-8	  -20.0000	   27.8422	    1.3493	    0.0000	
 -610.0000	5.225E-11	3.550E-8	  -20.0000	   27.8422	    1.3493	    0.0000	
 -620.0000	5.060E-11	5.821E-8	  -20.0000	   27.8422	    1.3493	    0.0000	
 -630.0000	5.169E-11	3.040E-8	  -20.0000	   27.8422	    1.3493	    0.0000	
 -640.0000	5.398E-11	4.997E-8	  -20.0000	   27.8422	    1.3493	    0.0000	
 -650.0000	5.467E-11	4.521E-8	  -20.0000	   27.8422	    1.3493	    0.0000	
 -660.0000	5.304E-11	3.418E-8	  -20.0000	   27.8422	    1.3493	    0.0000	
 -670.0000	4.840E-11	2.338E-8	  -20.0000	   27.8422	    1.3493	    0.0000	
 -680.0000	5.565E-11	2.099E-8	  -20.0000	   27.8422	    1.3493	    0.0000	
 -690.0000	5.159E-11	2.150E-8	  -20.0000	   27.8422	    1.3493	    0.0000	
 -700.0000	4.788E-11	2.588E-8	  -20.0000	   27.8422	    1.3493	    0.0000	
 -710.0000	5.037E-11	1.578E-8	  -20.0000	   27.8422	    1.3493	    0.0000	
 -720.0000	5.478E-11	2.325E-8	  -20.0000	   27.8422	    1.3493	    0.0000	
 -730.0000	5.343E-11	3.681E-8	  -20.0000	   27.8422	    1.3493	    0.0000	
 -740.0000	5.142E-11	3.134E-8	  -20.0000	   27.8422	    1.3493	    0.0000	
 -750.0000	5.536E-11	8.964E-10	  -20.0000	   27.8422	    1.3493	    0.0000	
 -760.0000	5.063E-11	1.090E-8	  -20.0000	   27.8422	    1.3493	    0.0000	
 -770.0000	5.403E-11	1.063E-8	  -20.0000	   27.8422	    1.3493	    0.0000	
 -780.0000	5.177E-11	2.172E-9	  -20.0000	   27.8422	    1.3493	    0.0000	
 -790.0000	5.409E-11	3.679E-8	  -20.0000	   27.8422	    1.3493	    0.0000	
 -800.0000	5.665E-11	2.007E-8	  -20.0000	   27.8422	    1.3493	    0.0000	
 -810.0000	4.900E-11	2.935E-8	  -20.0000	   27.8422	    1.3493	    0.0000	
 -820.0000	5.153E-11	7.943E-8	  -20.0000	   27.8422	    1.3493	    0.0000	
 -830.0000	5.367E-11	1.860E-8	  -20.0000	   27.8422	    1.3493	    0.0000	
 -840.0000	5.501E-11	2.658E-8	  -20.0000	   27.8422	    1.3493	    0.0000	
 -850.0000	5.162E-11	7.534E-9	  -20.0000	   27.8422	    1.3493	    0.0000	
 -860.0000	5.468E-11	1.583E-8	  -20.0000	   27.8422	    1.3493	    0.0000	
 -870.0000	5.614E-11	4.951E-9	  -20.0000	   27.8422	    1.3493	    0.0000	
 -880.0000	5.151E-11	5.273E-8	  -20.0000	   27.8422	    1.3493	    0.0000	
 -890.0000	4.985E-11	7.845E-9	  -20.0000	   27.8422	    1.3493	    0.0000	
 -900.0000	5.110E-11	1.104E-8	  -20.0000	   27.8422	    1.3493	    0.0000	
 -910.0000	5.367E-11	3.865E-8	  -20.0000	   27.8422	    1.3493	    0.0000	
 -920.0000	5.062E-11	2.740E-8	  -20.0000	   27.8422	    1.3493	    0.0000	
 -930.0000	5.286E-11	2.246E-8	  -20.0000	   27.8422	    1.3493	    0.0000	
 -940.0000	5.035E-11	2.385E-8	  -20.0000	   27.8422	    1.3493	    0.0000	
 -950.0000	5.313E-11	2.927E-8	  -20.0000	   27.8422	    1.3493	    0.0000	
 -960.0000	5.150E-11	3.951E-8	  -20.0000	   27.8422	    1.3493	    0.0000	
 -970.0000	5.408E-11	-1.287E-8	  -20.0000	   27.8422	    1.3493	    0.0000	
 -980.0000	4.898E-11	1.051E-8	  -20.0000	   27.8422	    1.3493	    0.0000	
 -990.0000	4.635E-11	4.755E-8	  -20.0000	   27.8422	    1.3493	    0.0000	
-1000.0000	5.116E-11	3.626E-8	  -20.0000	   27.8422	    1.3493	    0.0000	
