GCD Test
Bias: 5000.000000
IV_38696_001_2-S_HM_XX_DIODEHALFPSTOP_GR
Date/Time: 4/4/2022 11:51:39 PM
Sensor Name: 
Type: P
Annealing Status: Not Irradiated
Environment: 20C
Tester: Andrew Kent

Time Delay per Ramp Step (s): 0.500

CV Time Delay per Measurement (s) :0.500

AC Voltage (V): 0.500

Current Number of measurements per voltage: 1.000

IV Time Delay per Measurement (s) :0.000


BiasVoltage	Total Current_Avg	Total Current_0	Bias Current_Avg	Bias Current_0	Temperature	Air_Temp	Humidity	Dewpoint	
  -10.0000	2.9800E-10	2.9800E-10	-2.141266E-11	-2.141266E-11	   20.0064	   21.2161	   23.2381	   -0.6008	
  -20.0000	2.0200E-10	2.0200E-10	-2.200730E-11	-2.200730E-11	   20.0064	   21.2146	   23.2381	   -0.5866	
  -30.0000	2.3700E-10	2.3700E-10	-2.318659E-11	-2.318659E-11	   20.0013	   21.2177	   23.2565	   -0.5732	
  -40.0000	4.0000E-12	4.0000E-12	-2.429132E-11	-2.429132E-11	   19.9961	   21.2209	   23.2524	   -0.5729	
  -50.0000	6.6000E-11	6.6000E-11	-2.555026E-11	-2.555026E-11	   19.9910	   21.2155	   23.2717	   -0.5661	
  -60.0000	4.0000E-12	4.0000E-12	-2.694671E-11	-2.694671E-11	   19.9910	   21.2198	   23.2647	   -0.5666	
  -70.0000	-4.2000E-11	-4.2000E-11	-2.783999E-11	-2.783999E-11	   19.9910	   21.2186	   23.2758	   -0.5611	
  -80.0000	-2.1500E-10	-2.1500E-10	-2.867826E-11	-2.867826E-11	   19.9910	   21.2194	   23.2786	   -0.5587	
  -90.0000	-2.1500E-10	-2.1500E-10	-2.940572E-11	-2.940572E-11	   19.9936	   21.2194	   23.2805	   -0.5587	
 -100.0000	-2.3500E-10	-2.3500E-10	-2.997041E-11	-2.997041E-11	   20.0013	   21.2218	   23.2853	   -0.5556	
 -110.0000	-2.2300E-10	-2.2300E-10	-3.101933E-11	-3.101933E-11	   20.0013	   21.2187	   23.2834	   -0.5554	
 -120.0000	-2.4300E-10	-2.4300E-10	-3.233225E-11	-3.233225E-11	   20.0090	   21.2259	   23.2707	   -0.5505	
 -130.0000	-2.7000E-10	-2.7000E-10	-3.241170E-11	-3.241170E-11	   20.0090	   21.2213	   23.2707	   -0.5618	
 -140.0000	-2.8500E-10	-2.8500E-10	-3.324815E-11	-3.324815E-11	   20.0116	   21.2222	   23.2748	   -0.5586	
 -150.0000	-3.1700E-10	-3.1700E-10	-3.430582E-11	-3.430582E-11	   20.0116	   21.2175	   23.2830	   -0.5577	
 -160.0000	-3.4500E-10	-3.4500E-10	-3.596789E-11	-3.596789E-11	   20.0116	   21.2250	   23.2777	   -0.5546	
 -170.0000	-3.7800E-10	-3.7800E-10	-3.828575E-11	-3.828575E-11	   20.0090	   21.2221	   23.2755	   -0.5583	
 -180.0000	-4.0600E-10	-4.0600E-10	-4.227871E-11	-4.227871E-11	   20.0090	   21.2275	   23.2644	   -0.5603	
 -190.0000	-4.5200E-10	-4.5200E-10	-4.704947E-11	-4.704947E-11	   20.0039	   21.2214	   23.2761	   -0.5586	
 -200.0000	-4.8200E-10	-4.8200E-10	-5.391477E-11	-5.391477E-11	   20.0013	   21.2242	   23.2691	   -0.5604	
 -210.0000	-5.3500E-10	-5.3500E-10	-6.126368E-11	-6.126368E-11	   19.9961	   21.2219	   23.2691	   -0.5622	
 -220.0000	-5.7900E-10	-5.7900E-10	-6.757572E-11	-6.757572E-11	   19.9936	   21.2235	   23.2717	   -0.5594	
 -230.0000	-5.5300E-10	-5.5300E-10	-7.169520E-11	-7.169520E-11	   19.9884	   21.2227	   23.2720	   -0.5599	
 -240.0000	-5.8700E-10	-5.8700E-10	-7.529767E-11	-7.529767E-11	   19.9884	   21.2191	   23.2751	   -0.5611	
 -250.0000	-5.9600E-10	-5.9600E-10	-7.756353E-11	-7.756353E-11	   19.9910	   21.2193	   23.2676	   -0.5654	
 -260.0000	-6.7200E-10	-6.7200E-10	-7.978804E-11	-7.978804E-11	   19.9961	   21.2205	   23.2638	   -0.5666	
 -270.0000	-7.0400E-10	-7.0400E-10	-8.184188E-11	-8.184188E-11	   20.0013	   21.2205	   23.2638	   -0.5666	
 -280.0000	-7.1300E-10	-7.1300E-10	-8.350440E-11	-8.350440E-11	   20.0064	   21.2247	   23.2717	   -0.5567	
 -290.0000	-6.7300E-10	-6.7300E-10	-8.507564E-11	-8.507564E-11	   20.0090	   21.2247	   23.2789	   -0.5584	
 -300.0000	-7.1900E-10	-7.1900E-10	-8.589394E-11	-8.589394E-11	   20.0116	   21.2168	   23.2698	   -0.5608	
 -310.0000	-7.1300E-10	-7.1300E-10	-8.723353E-11	-8.723353E-11	   20.0116	   21.2201	   23.2698	   -0.5634	
 -320.0000	-7.9400E-10	-7.9400E-10	-8.787829E-11	-8.787829E-11	   20.0116	   21.2189	   23.2732	   -0.5624	
 -330.0000	-8.1200E-10	-8.1200E-10	-8.923214E-11	-8.923214E-11	   20.0090	   21.2190	   23.2710	   -0.5636	
 -340.0000	-8.0400E-10	-8.0400E-10	-8.990665E-11	-8.990665E-11	   20.0064	   21.2195	   23.2720	   -0.5626	
 -350.0000	-8.5400E-10	-8.5400E-10	-9.112792E-11	-9.112792E-11	   20.0039	   21.2215	   23.2698	   -0.5622	
 -360.0000	-8.3500E-10	-8.3500E-10	-9.187023E-11	-9.187023E-11	   20.0013	   21.2190	   23.2603	   -0.5699	
 -370.0000	-8.5100E-10	-8.5100E-10	-9.279508E-11	-9.279508E-11	   19.9987	   21.2217	   23.2669	   -0.5637	
 -380.0000	-9.2100E-10	-9.2100E-10	-9.340663E-11	-9.340663E-11	   19.9987	   21.2217	   23.2669	   -0.5637	
 -390.0000	-9.3300E-10	-9.3300E-10	-9.437997E-11	-9.437997E-11	   19.9910	   21.2210	   23.2464	   -0.5764	
 -400.0000	-9.4100E-10	-9.4100E-10	-9.515690E-11	-9.515690E-11	   19.9910	   21.2161	   23.2502	   -0.5783	
 -420.0000	-1.0880E-9	-1.0880E-9	-9.678621E-11	-9.678621E-11	   19.9910	   21.2161	   23.2502	   -0.5783	
 -440.0000	-1.1860E-9	-1.1860E-9	-9.784936E-11	-9.784936E-11	   19.9910	   21.2149	   23.2511	   -0.5787	
 -460.0000	-1.2940E-9	-1.2940E-9	-9.949333E-11	-9.949333E-11	   19.9936	   21.2149	   23.2536	   -0.5772	
 -480.0000	-1.3500E-9	-1.3500E-9	-1.003410E-10	-1.003410E-10	   19.9961	   21.2136	   23.2552	   -0.5774	
 -500.0000	-1.4000E-9	-1.4000E-9	-1.010935E-10	-1.010935E-10	   19.9987	   21.2179	   23.2619	   -0.5699	
 -520.0000	-1.4840E-9	-1.4840E-9	-1.026755E-10	-1.026755E-10	   20.0039	   21.2159	   23.2552	   -0.5755	
 -540.0000	-1.5610E-9	-1.5610E-9	-1.034213E-10	-1.034213E-10	   20.0090	   21.2167	   23.2596	   -0.5722	
 -560.0000	-1.5560E-9	-1.5560E-9	-1.048278E-10	-1.048278E-10	   20.0116	   21.2167	   23.2559	   -0.5722	
 -580.0000	-1.6200E-9	-1.6200E-9	-1.052048E-10	-1.052048E-10	   20.0116	   21.2152	   23.2559	   -0.5757	
 -600.0000	-1.6710E-9	-1.6710E-9	-1.064955E-10	-1.064955E-10	   20.0142	   21.2156	   23.2536	   -0.5766	
 -620.0000	-1.7530E-9	-1.7530E-9	-1.071066E-10	-1.071066E-10	   20.0142	   21.2164	   23.2448	   -0.5812	
 -640.0000	-1.9160E-9	-1.9160E-9	-1.084559E-10	-1.084559E-10	   20.0142	   21.2109	   23.2441	   -0.5861	
 -660.0000	-1.8060E-9	-1.8060E-9	-1.087476E-10	-1.087476E-10	   20.0090	   21.2109	   23.2268	   -0.5861	
 -680.0000	-1.8660E-9	-1.8660E-9	-1.098426E-10	-1.098426E-10	   20.0090	   21.2109	   23.2268	   -0.5964	
 -700.0000	-1.8700E-9	-1.8700E-9	-1.101379E-10	-1.101379E-10	   20.0039	   21.2113	   23.2268	   -0.5961	
 -720.0000	-1.9070E-9	-1.9070E-9	-1.107629E-10	-1.107629E-10	   19.9987	   21.2089	   23.2255	   -0.5988	
 -740.0000	-1.9720E-9	-1.9720E-9	-1.118842E-10	-1.118842E-10	   19.9961	   21.2120	   23.2005	   -0.6109	
 -760.0000	-2.0620E-9	-2.0620E-9	-1.125433E-10	-1.125433E-10	   19.9936	   21.2120	   23.2144	   -0.6109	
 -780.0000	-2.0720E-9	-2.0720E-9	-1.131317E-10	-1.131317E-10	   19.9936	   21.2105	   23.2144	   -0.6040	
 -800.0000	-2.1150E-9	-2.1150E-9	-1.140119E-10	-1.140119E-10	   19.9910	   21.2111	   23.1967	   -0.6139	
 -820.0000	-2.1770E-9	-2.1770E-9	-1.149647E-10	-1.149647E-10	   19.9936	   21.2100	   23.1970	   -0.6147	
 -840.0000	-2.2070E-9	-2.2070E-9	-1.162792E-10	-1.162792E-10	   19.9961	   21.2100	   23.1920	   -0.6147	
 -860.0000	-2.2280E-9	-2.2280E-9	-1.215935E-10	-1.215935E-10	   19.9961	   21.2140	   23.1920	   -0.6144	
 -880.0000	-2.2980E-9	-2.2980E-9	-1.173919E-10	-1.173919E-10	   20.0013	   21.2065	   23.1860	   -0.6242	
 -900.0000	-2.2800E-9	-2.2800E-9	-1.181877E-10	-1.181877E-10	   20.0039	   21.2080	   23.1793	   -0.6269	
 -920.0000	-2.4120E-9	-2.4120E-9	-1.185653E-10	-1.185653E-10	   20.0090	   21.2020	   23.1834	   -0.6295	
 -940.0000	-2.4520E-9	-2.4520E-9	-1.192757E-10	-1.192757E-10	   20.0142	   21.2020	   23.2002	   -0.6295	
 -960.0000	-2.4550E-9	-2.4550E-9	-1.202516E-10	-1.202516E-10	   20.0142	   21.2020	   23.2002	   -0.6196	
 -980.0000	-2.5950E-9	-2.5950E-9	-1.207089E-10	-1.207089E-10	   20.0142	   21.2081	   23.1992	   -0.6150	
-1000.0000	-2.5970E-9	-2.5970E-9	-1.211457E-10	-1.211457E-10	   20.0142	   21.2037	   23.2125	   -0.6109	
