38875_048_2-S_HM_XX_Irrad_20min
Date/Time: 4/25/2022 10:46:29 AM
Sensor Name: 38875_048_2-S_HM_XX
Station: Tesla
Annealing Status: 20 min
Environment: -20C
Tester: Eric Spencer
Notes: Irradiated at RINSC

Time Delay per Ramp Step (s): 1.000

CV Time Delay per Measurement (s) :0.500

AC Voltage (V): 0.500

Current Number of measurements per voltage: 4.000

IV Time Delay per Measurement (s) :0.500


BiasVoltage	LCR_Cp_freq1	LCR_G_freq1	Temperature	Air_Temp	Humidity	Dewpoint	
  -10.0000	1.657E-10	1.415E-6	  -20.0000	   25.8263	    1.3529	    0.0000	
  -20.0000	1.650E-10	1.095E-6	  -20.0000	   25.8263	    1.3529	    0.0000	
  -30.0000	1.584E-10	9.122E-7	  -20.0000	   25.8263	    1.3529	    0.0000	
  -40.0000	1.515E-10	7.895E-7	  -20.0000	   25.8263	    1.3529	    0.0000	
  -50.0000	1.453E-10	6.956E-7	  -20.0000	   25.8263	    1.3529	    0.0000	
  -60.0000	1.396E-10	6.245E-7	  -20.0000	   25.8263	    1.3529	    0.0000	
  -70.0000	1.344E-10	5.685E-7	  -20.0000	   25.8263	    1.3529	    0.0000	
  -80.0000	1.298E-10	5.227E-7	  -20.0000	   25.8263	    1.3529	    0.0000	
  -90.0000	1.255E-10	4.855E-7	  -20.0000	   25.8263	    1.3529	    0.0000	
 -100.0000	1.218E-10	4.506E-7	  -20.0000	   25.8263	    1.3529	    0.0000	
 -110.0000	1.184E-10	4.243E-7	  -20.0000	   25.8263	    1.3529	    0.0000	
 -120.0000	1.150E-10	3.996E-7	  -20.0000	   25.8263	    1.3529	    0.0000	
 -130.0000	1.122E-10	3.806E-7	  -20.0000	   25.8263	    1.3529	    0.0000	
 -140.0000	1.094E-10	3.595E-7	  -20.0000	   25.8263	    1.3529	    0.0000	
 -150.0000	1.071E-10	3.444E-7	  -20.0000	   25.8263	    1.3529	    0.0000	
 -160.0000	1.043E-10	3.299E-7	  -20.0000	   25.8263	    1.3529	    0.0000	
 -170.0000	1.025E-10	3.130E-7	  -20.0000	   25.8263	    1.3529	    0.0000	
 -180.0000	9.972E-11	2.986E-7	  -20.0000	   25.8263	    1.3529	    0.0000	
 -190.0000	9.791E-11	2.861E-7	  -20.0000	   25.8263	    1.3529	    0.0000	
 -200.0000	9.586E-11	2.785E-7	  -20.0000	   25.8263	    1.3529	    0.0000	
 -210.0000	9.447E-11	2.645E-7	  -20.0000	   25.8263	    1.3529	    0.0000	
 -220.0000	9.249E-11	2.564E-7	  -20.0000	   25.8263	    1.3529	    0.0000	
 -230.0000	9.106E-11	2.459E-7	  -20.0000	   25.8263	    1.3529	    0.0000	
 -240.0000	8.959E-11	2.382E-7	  -20.0000	   25.8263	    1.3529	    0.0000	
 -250.0000	8.798E-11	2.273E-7	  -20.0000	   25.8263	    1.3529	    0.0000	
 -260.0000	8.682E-11	2.202E-7	  -20.0000	   25.8263	    1.3529	    0.0000	
 -270.0000	8.519E-11	2.143E-7	  -20.0000	   25.8263	    1.3529	    0.0000	
 -280.0000	8.346E-11	2.069E-7	  -20.0000	   25.8263	    1.3529	    0.0000	
 -290.0000	8.240E-11	1.976E-7	  -20.0000	   25.8263	    1.3529	    0.0000	
 -300.0000	8.107E-11	1.878E-7	  -20.0000	   25.8263	    1.3529	    0.0000	
 -310.0000	7.969E-11	1.864E-7	  -20.0000	   25.8263	    1.3529	    0.0000	
 -320.0000	7.851E-11	1.745E-7	  -20.0000	   25.8263	    1.3529	    0.0000	
 -330.0000	7.776E-11	1.697E-7	  -20.0000	   25.8263	    1.3529	    0.0000	
 -340.0000	7.605E-11	1.562E-7	  -20.0000	   25.8263	    1.3529	    0.0000	
 -350.0000	7.513E-11	1.587E-7	  -20.0000	   25.8263	    1.3529	    0.0000	
 -360.0000	7.368E-11	1.474E-7	  -20.0000	   25.8263	    1.3529	    0.0000	
 -370.0000	7.206E-11	1.430E-7	  -20.0000	   25.8263	    1.3529	    0.0000	
 -380.0000	7.213E-11	1.392E-7	  -20.0000	   25.8263	    1.3529	    0.0000	
 -390.0000	6.999E-11	1.324E-7	  -20.0000	   25.8263	    1.3529	    0.0000	
 -400.0000	6.830E-11	1.301E-7	  -20.0000	   25.8263	    1.3529	    0.0000	
 -410.0000	6.755E-11	1.265E-7	  -20.0000	   25.8263	    1.3529	    0.0000	
 -420.0000	6.711E-11	1.116E-7	  -20.0000	   25.8263	    1.3529	    0.0000	
 -430.0000	6.652E-11	1.036E-7	  -20.0000	   25.8263	    1.3529	    0.0000	
 -440.0000	6.503E-11	1.037E-7	  -20.0000	   25.8263	    1.3529	    0.0000	
 -450.0000	6.472E-11	9.723E-8	  -20.0000	   25.8263	    1.3529	    0.0000	
 -460.0000	6.221E-11	8.938E-8	  -20.0000	   25.8263	    1.3529	    0.0000	
 -470.0000	6.213E-11	8.803E-8	  -20.0000	   25.8263	    1.3529	    0.0000	
 -480.0000	6.141E-11	8.446E-8	  -20.0000	   25.8263	    1.3529	    0.0000	
 -490.0000	5.961E-11	7.984E-8	  -20.0000	   25.8263	    1.3529	    0.0000	
 -500.0000	6.056E-11	7.772E-8	  -20.0000	   25.8263	    1.3529	    0.0000	
 -510.0000	5.874E-11	7.007E-8	  -20.0000	   25.8263	    1.3529	    0.0000	
 -520.0000	5.893E-11	6.465E-8	  -20.0000	   25.8263	    1.3529	    0.0000	
 -530.0000	5.921E-11	5.516E-8	  -20.0000	   25.8263	    1.3529	    0.0000	
 -540.0000	5.769E-11	5.866E-8	  -20.0000	   25.8263	    1.3529	    0.0000	
 -550.0000	5.761E-11	5.486E-8	  -20.0000	   25.8263	    1.3529	    0.0000	
 -560.0000	5.599E-11	5.212E-8	  -20.0000	   25.8263	    1.3529	    0.0000	
 -570.0000	5.594E-11	5.385E-8	  -20.0000	   25.8263	    1.3529	    0.0000	
 -580.0000	5.518E-11	4.734E-8	  -20.0000	   25.8263	    1.3529	    0.0000	
 -590.0000	5.515E-11	4.195E-8	  -20.0000	   25.8263	    1.3529	    0.0000	
 -600.0000	5.511E-11	3.505E-8	  -20.0000	   25.8263	    1.3529	    0.0000	
 -610.0000	5.405E-11	3.230E-8	  -20.0000	   25.8263	    1.3529	    0.0000	
 -620.0000	5.492E-11	3.745E-8	  -20.0000	   25.8263	    1.3529	    0.0000	
 -630.0000	5.456E-11	3.442E-8	  -20.0000	   25.8263	    1.3529	    0.0000	
 -640.0000	5.438E-11	3.806E-8	  -20.0000	   25.8263	    1.3529	    0.0000	
 -650.0000	5.465E-11	2.989E-8	  -20.0000	   25.8263	    1.3529	    0.0000	
 -660.0000	5.361E-11	2.782E-8	  -20.0000	   25.8263	    1.3529	    0.0000	
 -670.0000	5.381E-11	3.382E-8	  -20.0000	   25.8263	    1.3529	    0.0000	
 -680.0000	5.413E-11	2.337E-8	  -20.0000	   25.8263	    1.3529	    0.0000	
 -690.0000	5.401E-11	2.377E-8	  -20.0000	   25.8263	    1.3529	    0.0000	
 -700.0000	5.376E-11	2.942E-8	  -20.0000	   25.8263	    1.3529	    0.0000	
 -710.0000	5.320E-11	3.143E-8	  -20.0000	   25.8263	    1.3529	    0.0000	
 -720.0000	5.303E-11	2.665E-8	  -20.0000	   25.8263	    1.3529	    0.0000	
 -730.0000	5.339E-11	2.403E-8	  -20.0000	   25.8263	    1.3529	    0.0000	
 -740.0000	5.310E-11	2.378E-8	  -20.0000	   25.8263	    1.3529	    0.0000	
 -750.0000	5.271E-11	2.193E-8	  -20.0000	   25.8263	    1.3529	    0.0000	
 -760.0000	5.428E-11	2.336E-8	  -20.0000	   25.8263	    1.3529	    0.0000	
 -770.0000	5.479E-11	2.043E-8	  -20.0000	   25.8263	    1.3529	    0.0000	
 -780.0000	5.250E-11	2.054E-8	  -20.0000	   25.8263	    1.3529	    0.0000	
 -790.0000	5.376E-11	2.427E-8	  -20.0000	   25.8263	    1.3529	    0.0000	
 -800.0000	5.357E-11	2.202E-8	  -20.0000	   25.8263	    1.3529	    0.0000	
 -810.0000	5.346E-11	2.185E-8	  -20.0000	   25.8263	    1.3529	    0.0000	
 -820.0000	5.286E-11	1.950E-8	  -20.0000	   25.8263	    1.3529	    0.0000	
 -830.0000	5.352E-11	1.543E-8	  -20.0000	   25.8263	    1.3529	    0.0000	
 -840.0000	5.287E-11	2.530E-8	  -20.0000	   25.8263	    1.3529	    0.0000	
 -850.0000	5.355E-11	1.390E-8	  -20.0000	   25.8263	    1.3529	    0.0000	
 -860.0000	5.286E-11	1.760E-8	  -20.0000	   25.8263	    1.3529	    0.0000	
 -870.0000	5.367E-11	1.685E-8	  -20.0000	   25.8263	    1.3529	    0.0000	
 -880.0000	5.248E-11	1.734E-8	  -20.0000	   25.8263	    1.3529	    0.0000	
 -890.0000	5.264E-11	2.222E-8	  -20.0000	   25.8263	    1.3529	    0.0000	
 -900.0000	5.309E-11	2.373E-8	  -20.0000	   25.8263	    1.3529	    0.0000	
 -910.0000	5.283E-11	1.717E-8	  -20.0000	   25.8263	    1.3529	    0.0000	
 -920.0000	5.353E-11	1.780E-8	  -20.0000	   25.8263	    1.3529	    0.0000	
 -930.0000	5.337E-11	1.730E-8	  -20.0000	   25.8263	    1.3529	    0.0000	
 -940.0000	5.376E-11	2.448E-8	  -20.0000	   25.8263	    1.3529	    0.0000	
 -950.0000	5.319E-11	1.507E-8	  -20.0000	   25.8263	    1.3529	    0.0000	
 -960.0000	5.304E-11	8.578E-9	  -20.0000	   25.8263	    1.3529	    0.0000	
 -970.0000	5.326E-11	1.726E-8	  -20.0000	   25.8263	    1.3529	    0.0000	
 -980.0000	5.295E-11	2.387E-8	  -20.0000	   25.8263	    1.3529	    0.0000	
 -990.0000	5.256E-11	9.610E-9	  -20.0000	   25.8263	    1.3529	    0.0000	
-1000.0000	5.207E-11	1.137E-8	  -20.0000	   25.8263	    1.3529	    0.0000	
