GCD Test
Bias: 5000.000000
CV_36697_011_PSS_HM_XX_DIODE
Date/Time: 9/27/2021 2:41:30 PM
Sensor Name: 36697_011_DIODE
Type: P
Annealing Status: Not Irradiated and Not Annealed
Environment: 20C
Tester: Andrew Kent

Time Delay per Ramp Step (s): 0.500

CV Time Delay per Measurement (s) :0.500

AC Voltage (V): 0.500

Current Number of measurements per voltage: 1.000

IV Time Delay per Measurement (s) :0.000


BiasVoltage	LCR_Cp_freqNaN	LCR_Rp_freqNaN	Temperature	Air_Temp	Humidity	Dewpoint	
   -5.0000	9.819E-11	6.209E+8	   20.0090	   21.7003	   10.8656	  -10.1815	
  -10.0000	7.061E-11	1.837E+9	   20.0090	   21.6962	   10.5775	  -10.5230	
  -15.0000	5.770E-11	2.148E+9	   20.0090	   21.6962	   10.5775	  -10.5230	
  -20.0000	4.954E-11	2.443E+9	   19.9987	   21.6981	    9.9146	  -11.3321	
  -25.0000	4.289E-11	2.215E+9	   19.9987	   21.6981	    9.9146	  -11.3321	
  -30.0000	3.748E-11	2.872E+9	   19.9936	   21.7044	    9.4978	  -11.8621	
  -35.0000	3.355E-11	2.778E+9	   19.9910	   21.7053	    9.3444	  -12.0635	
  -40.0000	3.099E-11	3.315E+9	   19.9936	   21.6986	    9.2103	  -12.2476	
  -45.0000	2.924E-11	1.022E+9	   19.9936	   21.7009	    9.0870	  -12.4127	
  -50.0000	2.380E-11	2.403E+9	   19.9961	   21.6970	    8.9826	  -12.5583	
  -55.0000	2.276E-11	2.610E+9	   20.0013	   21.6915	    8.8773	  -12.7079	
  -60.0000	2.186E-11	3.042E+9	   20.0039	   21.6947	    8.7887	  -12.8291	
  -65.0000	2.105E-11	3.257E+9	   20.0090	   21.6911	    8.7068	  -12.9471	
  -70.0000	2.035E-11	3.367E+9	   20.0116	   21.6896	    8.6290	  -13.0586	
  -75.0000	1.971E-11	4.112E+9	   20.0142	   21.6910	    8.5670	  -13.1461	
  -80.0000	1.913E-11	4.608E+9	   20.0142	   21.6942	    8.4918	  -13.2520	
  -85.0000	1.861E-11	4.750E+9	   20.0116	   21.6924	    8.4326	  -13.3391	
  -90.0000	1.813E-11	6.478E+9	   20.0090	   21.6927	    8.3798	  -13.4159	
  -95.0000	1.768E-11	6.620E+9	   20.0064	   21.6917	    8.3229	  -13.5001	
 -100.0000	1.728E-11	7.212E+9	   20.0039	   21.6842	    8.2688	  -13.5855	
 -105.0000	1.690E-11	6.415E+9	   20.0013	   21.6882	    8.2220	  -13.6519	
 -110.0000	1.655E-11	7.012E+9	   19.9987	   21.6866	    8.1796	  -13.7163	
 -115.0000	1.620E-11	1.234E+10	   19.9961	   21.6896	    8.1303	  -13.7880	
 -120.0000	1.590E-11	1.116E+10	   19.9961	   21.6979	    8.1085	  -13.8146	
 -125.0000	1.560E-11	1.841E+10	   19.9961	   21.6950	    8.0601	  -13.8898	
 -130.0000	1.533E-11	1.129E+10	   19.9961	   21.6910	    8.0307	  -13.9374	
 -135.0000	1.507E-11	1.711E+10	   19.9961	   21.6910	    8.0307	  -13.9374	
 -140.0000	1.483E-11	1.094E+10	   19.9987	   21.6918	    7.9873	  -14.0028	
 -145.0000	1.459E-11	1.691E+10	   20.0013	   21.6958	    7.9677	  -14.0298	
 -150.0000	1.438E-11	1.444E+10	   20.0039	   21.6860	    7.9415	  -14.0772	
 -155.0000	1.417E-11	3.325E+10	   20.0064	   21.6890	    7.9187	  -14.1100	
 -160.0000	1.397E-11	1.117E+10	   20.0090	   21.6887	    7.8678	  -14.1540	
 -165.0000	1.378E-11	2.099E+10	   20.0090	   21.6887	    7.8678	  -14.1887	
 -170.0000	1.359E-11	1.630E+10	   20.0090	   21.6876	    7.8438	  -14.2267	
 -175.0000	1.342E-11	2.204E+10	   20.0064	   21.6874	    7.8261	  -14.2544	
 -180.0000	1.326E-11	-4.680E+10	   20.0039	   21.6895	    7.8106	  -14.2769	
 -185.0000	1.310E-11	1.280E+11	   20.0013	   21.6913	    7.7799	  -14.3235	
 -190.0000	1.294E-11	2.550E+10	   19.9961	   21.6908	    7.7657	  -14.3461	
 -195.0000	1.279E-11	3.607E+10	   19.9936	   21.6903	    7.7315	  -14.4000	
 -200.0000	1.265E-11	2.546E+10	   19.9936	   21.6883	    7.7087	  -14.4373	
 -205.0000	1.251E-11	5.118E+10	   19.9936	   21.6883	    7.7087	  -14.4373	
 -210.0000	1.239E-11	2.219E+11	   19.9961	   21.6849	    7.6828	  -14.4807	
 -215.0000	1.225E-11	-8.297E+10	   19.9961	   21.6849	    7.6828	  -14.4807	
 -220.0000	1.212E-11	1.082E+11	   20.0013	   21.6856	    7.6553	  -14.5237	
 -225.0000	1.201E-11	-3.724E+10	   20.0064	   21.6816	    7.6528	  -14.5307	
 -230.0000	1.188E-11	-4.343E+10	   20.0090	   21.6823	    7.6407	  -14.5493	
 -235.0000	1.177E-11	2.085E+11	   20.0090	   21.6836	    7.6293	  -14.5664	
 -240.0000	1.167E-11	-3.359E+10	   20.0116	   21.6828	    7.6164	  -14.5876	
 -245.0000	1.155E-11	-5.714E+10	   20.0064	   21.6821	    7.5980	  -14.6174	
 -250.0000	1.145E-11	-1.050E+11	   20.0064	   21.6864	    7.5977	  -14.6147	
 -255.0000	1.134E-11	-3.044E+10	   20.0013	   21.6848	    7.5772	  -14.6487	
 -260.0000	1.123E-11	6.867E+10	   19.9987	   21.6844	    7.5737	  -14.6546	
 -265.0000	1.114E-11	-9.861E+10	   19.9961	   21.6859	    7.5645	  -14.6681	
 -270.0000	1.104E-11	-8.223E+10	   19.9961	   21.6818	    7.5595	  -14.6793	
 -275.0000	1.095E-11	-3.823E+10	   19.9961	   21.6812	    7.5443	  -14.7041	
 -280.0000	1.085E-11	-3.526E+10	   19.9961	   21.6847	    7.5459	  -14.6990	
 -285.0000	1.076E-11	-2.559E+10	   19.9987	   21.6755	    7.5313	  -14.7291	
 -290.0000	1.067E-11	-2.290E+10	   20.0013	   21.6781	    7.5240	  -14.7389	
 -295.0000	1.060E-11	-2.728E+10	   20.0039	   21.6752	    7.5291	  -14.7329	
 -300.0000	1.053E-11	-1.134E+10	   20.0064	   21.6822	    7.5145	  -14.7512	
 -305.0000	1.048E-11	-5.191E+10	   20.0090	   21.6747	    7.5041	  -14.7736	
 -310.0000	1.045E-11	-4.771E+10	   20.0064	   21.6715	    7.5019	  -14.7795	
 -315.0000	1.043E-11	-1.692E+11	   20.0039	   21.6808	    7.4946	  -14.7843	
 -320.0000	1.040E-11	-2.291E+10	   20.0013	   21.6808	    7.4899	  -14.7920	
 -325.0000	1.039E-11	-2.451E+10	   19.9987	   21.6731	    7.4763	  -14.8197	
 -330.0000	1.037E-11	-1.220E+11	   19.9961	   21.6731	    7.4671	  -14.8346	
 -335.0000	1.036E-11	1.233E+12	   19.9961	   21.6731	    7.4671	  -14.8346	
 -340.0000	1.036E-11	-3.277E+10	   19.9936	   21.6710	    7.4602	  -14.8474	
 -345.0000	1.035E-11	1.037E+14	   19.9936	   21.6746	    7.4491	  -14.8627	
 -350.0000	1.034E-11	-1.773E+10	   19.9936	   21.6746	    7.4491	  -14.8627	
 -355.0000	1.033E-11	-1.935E+10	   19.9961	   21.6729	    7.4450	  -14.8706	
 -360.0000	1.032E-11	-1.690E+10	   19.9987	   21.6718	    7.4409	  -14.8781	
 -365.0000	1.032E-11	-2.649E+10	   20.0039	   21.6659	    7.4450	  -14.8757	
 -370.0000	1.031E-11	-4.533E+10	   20.0064	   21.6733	    7.4339	  -14.8883	
 -375.0000	1.031E-11	-2.487E+10	   20.0064	   21.6747	    7.4216	  -14.9073	
 -380.0000	1.030E-11	-1.538E+10	   20.0064	   21.6747	    7.4216	  -14.9073	
 -385.0000	1.030E-11	-5.095E+10	   20.0039	   21.6644	    7.4203	  -14.9170	
 -390.0000	1.030E-11	-1.663E+10	   20.0013	   21.6713	    7.4168	  -14.9176	
 -395.0000	1.029E-11	-6.486E+10	   19.9987	   21.6657	    7.4181	  -14.9197	
 -400.0000	1.029E-11	-2.319E+10	   19.9961	   21.6676	    7.4235	  -14.9095	
 -410.0000	1.028E-11	-3.656E+10	   19.9936	   21.6710	    7.4165	  -14.9183	
 -420.0000	1.028E-11	-1.456E+10	   19.9936	   21.6670	    7.4165	  -14.9213	
 -430.0000	1.027E-11	-1.906E+10	   19.9936	   21.6637	    7.4013	  -14.9485	
 -440.0000	1.027E-11	-4.251E+10	   19.9961	   21.6637	    7.4026	  -14.9464	
 -450.0000	1.026E-11	-7.172E+10	   19.9987	   21.6613	    7.4058	  -14.9431	
 -460.0000	1.025E-11	-3.373E+10	   19.9987	   21.6613	    7.4058	  -14.9431	
 -470.0000	1.026E-11	-1.677E+10	   20.0039	   21.6628	    7.3975	  -14.9554	
 -480.0000	1.025E-11	-1.715E+11	   20.0064	   21.6589	    7.3830	  -14.9820	
 -490.0000	1.024E-11	-7.066E+10	   20.0039	   21.6624	    7.3786	  -14.9867	
 -500.0000	1.024E-11	-3.332E+10	   20.0039	   21.6556	    7.3748	  -14.9979	
 -510.0000	1.024E-11	-1.860E+10	   20.0013	   21.6556	    7.3624	  -15.0181	
 -520.0000	1.024E-11	-7.817E+10	   20.0013	   21.6499	    7.3700	  -15.0099	
 -530.0000	1.024E-11	-1.452E+10	   19.9987	   21.6556	    7.3536	  -15.0327	
 -540.0000	1.023E-11	-1.380E+10	   19.9961	   21.6556	    7.3665	  -15.0114	
 -550.0000	1.023E-11	-2.527E+10	   19.9936	   21.6539	    7.3599	  -15.0236	
 -560.0000	1.023E-11	-8.316E+10	   19.9936	   21.6511	    7.3583	  -15.0282	
 -570.0000	1.023E-11	-1.429E+10	   19.9936	   21.6474	    7.3542	  -15.0377	
 -580.0000	1.023E-11	-2.357E+10	   19.9961	   21.6514	    7.3476	  -15.0456	
 -590.0000	1.023E-11	-1.513E+10	   19.9987	   21.6514	    7.3438	  -15.0519	
 -600.0000	1.023E-11	-1.654E+11	   20.0013	   21.6453	    7.3504	  -15.0455	
