GCD Test
Bias: 5000.000000
CV_34331_007_2-S_HM_XX_DIODEHALFPSTOP
Date/Time: 9/9/2021 5:58:51 PM
Sensor Name: DIODEHALFPSTOP
Type: P
Annealing Status: Not Irradiated and Not Annealed
Environment: -20C
Tester: Andrew Kent

Time Delay per Ramp Step (s): 0.500

CV Time Delay per Measurement (s) :0.500

AC Voltage (V): 0.500

Current Number of measurements per voltage: 1.000

IV Time Delay per Measurement (s) :0.000


BiasVoltage	LCR_Cp_freq1000.0	LCR_Rp_freq1000.0	Temperature	Air_Temp	Humidity	Dewpoint	
   -5.0000	2.249E-11	1.247E+9	   19.9910	   21.1249	    8.8226	  -13.2109	
  -10.0000	1.728E-11	1.831E+9	   19.9884	   21.1255	    8.6420	  -13.4640	
  -15.0000	1.490E-11	1.854E+9	   19.9858	   21.1317	    8.4557	  -13.7259	
  -20.0000	1.351E-11	1.933E+9	   19.9858	   21.1317	    8.4557	  -13.7259	
  -25.0000	1.259E-11	2.044E+9	   19.9961	   21.1357	    8.1110	  -14.2304	
  -30.0000	1.195E-11	1.935E+9	   19.9961	   21.1357	    8.1110	  -14.2304	
  -35.0000	1.142E-11	1.897E+9	   20.0039	   21.1474	    7.9662	  -14.4406	
  -40.0000	1.100E-11	1.899E+9	   20.0142	   21.1454	    7.8276	  -14.6549	
  -45.0000	1.064E-11	2.049E+9	   20.0167	   21.1472	    7.7641	  -14.7523	
  -50.0000	1.035E-11	1.906E+9	   20.0193	   21.1564	    7.7135	  -14.8246	
  -55.0000	1.009E-11	2.031E+9	   20.0167	   21.1531	    7.6569	  -14.9161	
  -60.0000	9.867E-12	1.871E+9	   20.0142	   21.1560	    7.6154	  -14.9796	
  -65.0000	9.668E-12	2.084E+9	   20.0090	   21.1589	    7.5882	  -15.0206	
  -70.0000	9.485E-12	2.019E+9	   20.0013	   21.1556	    7.5497	  -15.0846	
  -75.0000	9.336E-12	2.081E+9	   19.9961	   21.1603	    7.5240	  -15.1222	
  -80.0000	9.186E-12	1.895E+9	   19.9910	   21.1604	    7.4826	  -15.1887	
  -85.0000	9.050E-12	1.927E+9	   19.9858	   21.1638	    7.4560	  -15.2291	
  -90.0000	8.923E-12	1.923E+9	   19.9858	   21.1588	    7.4396	  -15.2594	
  -95.0000	8.803E-12	1.889E+9	   19.9858	   21.1639	    7.4137	  -15.2978	
 -100.0000	8.694E-12	1.991E+9	   19.9884	   21.1647	    7.3991	  -15.3208	
 -105.0000	8.598E-12	1.877E+9	   19.9936	   21.1580	    7.3795	  -15.3577	
 -110.0000	8.508E-12	1.934E+9	   20.0013	   21.1672	    7.3615	  -15.3804	
 -115.0000	8.422E-12	2.107E+9	   20.0090	   21.1706	    7.3520	  -15.3934	
 -120.0000	8.345E-12	2.065E+9	   20.0167	   21.1697	    7.3393	  -15.4148	
 -125.0000	8.269E-12	2.030E+9	   20.0193	   21.1696	    7.3280	  -15.4335	
 -130.0000	8.198E-12	2.075E+9	   20.0219	   21.1769	    7.3194	  -15.4421	
 -135.0000	8.135E-12	2.047E+9	   20.0219	   21.1777	    7.3046	  -15.4660	
 -140.0000	8.073E-12	2.088E+9	   20.0193	   21.1712	    7.2951	  -15.4865	
 -145.0000	8.011E-12	2.132E+9	   20.0090	   21.1712	    7.2925	  -15.4907	
 -150.0000	7.960E-12	2.109E+9	   20.0039	   21.1779	    7.2688	  -15.5249	
 -155.0000	7.903E-12	2.052E+9	   19.9961	   21.1782	    7.2530	  -15.5508	
 -160.0000	7.852E-12	2.099E+9	   19.9884	   21.1772	    7.2549	  -15.5484	
 -165.0000	7.801E-12	2.040E+9	   19.9858	   21.1778	    7.2426	  -15.5685	
 -170.0000	7.757E-12	2.053E+9	   19.9884	   21.1797	    7.2432	  -15.5660	
 -175.0000	7.715E-12	2.122E+9	   19.9910	   21.1797	    7.2423	  -15.5676	
 -180.0000	7.671E-12	2.101E+9	   19.9961	   21.1823	    7.2375	  -15.5735	
 -185.0000	7.627E-12	2.055E+9	   20.0064	   21.1858	    7.2252	  -15.5915	
 -190.0000	7.592E-12	2.102E+9	   20.0142	   21.1858	    7.2274	  -15.5878	
 -195.0000	7.555E-12	2.080E+9	   20.0193	   21.1876	    7.2280	  -15.5854	
 -200.0000	7.515E-12	2.180E+9	   20.0219	   21.1855	    7.2245	  -15.5927	
 -205.0000	7.484E-12	2.115E+9	   20.0245	   21.1912	    7.2207	  -15.5948	
 -210.0000	7.446E-12	2.166E+9	   20.0193	   21.1960	    7.2179	  -15.5960	
 -215.0000	7.418E-12	2.003E+9	   20.0142	   21.1948	    7.2030	  -15.6217	
 -220.0000	7.383E-12	2.080E+9	   20.0090	   21.1962	    7.2018	  -15.6228	
 -225.0000	7.353E-12	2.143E+9	   20.0039	   21.1954	    7.2125	  -15.6055	
 -230.0000	7.325E-12	2.255E+9	   19.9961	   21.1949	    7.2030	  -15.6216	
 -235.0000	7.295E-12	2.177E+9	   19.9936	   21.1934	    7.1992	  -15.6290	
 -240.0000	7.266E-12	2.085E+9	   19.9936	   21.1985	    7.2037	  -15.6179	
 -245.0000	7.240E-12	2.158E+9	   19.9936	   21.1957	    7.1901	  -15.6426	
 -250.0000	7.210E-12	2.253E+9	   19.9936	   21.1957	    7.1901	  -15.6426	
 -255.0000	7.183E-12	2.117E+9	   19.9936	   21.1955	    7.1901	  -15.6428	
 -260.0000	7.159E-12	2.109E+9	   20.0013	   21.1966	    7.1822	  -15.6552	
 -265.0000	7.131E-12	2.254E+9	   20.0064	   21.2004	    7.1913	  -15.6371	
 -270.0000	7.105E-12	2.065E+9	   20.0090	   21.2000	    7.1885	  -15.6422	
 -275.0000	7.077E-12	1.955E+9	   20.0142	   21.2033	    7.1913	  -15.6349	
 -280.0000	7.049E-12	1.915E+9	   20.0142	   21.1974	    7.1885	  -15.6441	
 -285.0000	7.023E-12	1.834E+9	   20.0116	   21.2062	    7.1825	  -15.6476	
 -290.0000	6.984E-12	1.791E+9	   20.0039	   21.2034	    7.1755	  -15.6613	
 -295.0000	6.953E-12	1.883E+9	   20.0013	   21.2044	    7.1803	  -15.6527	
 -300.0000	6.927E-12	2.044E+9	   19.9936	   21.2083	    7.1850	  -15.6418	
 -305.0000	6.906E-12	2.243E+9	   19.9884	   21.2101	    7.1758	  -15.6559	
 -310.0000	6.899E-12	2.277E+9	   19.9858	   21.2101	    7.1733	  -15.6601	
 -315.0000	6.883E-12	2.335E+9	   19.9858	   21.2107	    7.1695	  -15.6660	
 -320.0000	6.876E-12	2.319E+9	   19.9910	   21.2128	    7.1714	  -15.6613	
 -325.0000	6.869E-12	2.476E+9	   19.9961	   21.2125	    7.1682	  -15.6668	
 -330.0000	6.864E-12	2.498E+9	   20.0013	   21.2185	    7.1720	  -15.6560	
 -335.0000	6.859E-12	2.377E+9	   20.0064	   21.2146	    7.1781	  -15.6488	
 -340.0000	6.850E-12	2.348E+9	   20.0142	   21.2177	    7.1784	  -15.6460	
 -345.0000	6.850E-12	2.444E+9	   20.0167	   21.2180	    7.1679	  -15.6633	
 -350.0000	6.841E-12	2.471E+9	   20.0193	   21.2212	    7.1850	  -15.6323	
 -355.0000	6.844E-12	2.390E+9	   20.0167	   21.2179	    7.1464	  -15.6994	
 -360.0000	6.839E-12	2.367E+9	   20.0116	   21.2248	    7.1673	  -15.6593	
 -365.0000	6.836E-12	2.554E+9	   20.0064	   21.2214	    7.1727	  -15.6528	
 -370.0000	6.833E-12	2.428E+9	   19.9987	   21.2235	    7.1626	  -15.6682	
 -375.0000	6.829E-12	2.457E+9	   19.9936	   21.2254	    7.1534	  -15.6822	
 -380.0000	6.826E-12	2.432E+9	   19.9910	   21.2251	    7.1629	  -15.6666	
 -385.0000	6.825E-12	2.447E+9	   19.9910	   21.2251	    7.1638	  -15.6650	
 -390.0000	6.825E-12	2.375E+9	   19.9910	   21.2251	    7.1591	  -15.6729	
 -395.0000	6.822E-12	2.462E+9	   19.9987	   21.2205	    7.1746	  -15.6503	
 -400.0000	6.820E-12	2.429E+9	   20.0039	   21.2205	    7.1565	  -15.6805	
 -410.0000	6.816E-12	2.515E+9	   20.0090	   21.2269	    7.1632	  -15.6647	
 -420.0000	6.812E-12	2.619E+9	   20.0142	   21.2299	    7.1629	  -15.6630	
 -430.0000	6.810E-12	2.389E+9	   20.0167	   21.2336	    7.1607	  -15.6640	
 -440.0000	6.808E-12	2.568E+9	   20.0142	   21.2347	    7.1528	  -15.6764	
 -450.0000	6.803E-12	2.529E+9	   20.0116	   21.2299	    7.1521	  -15.6810	
 -460.0000	6.805E-12	2.562E+9	   20.0064	   21.2342	    7.1569	  -15.6699	
 -470.0000	6.802E-12	2.633E+9	   20.0064	   21.2342	    7.1569	  -15.6699	
 -480.0000	6.805E-12	2.607E+9	   19.9936	   21.2332	    7.1562	  -15.6717	
 -490.0000	6.798E-12	2.363E+9	   19.9884	   21.2318	    7.1524	  -15.6791	
 -500.0000	6.797E-12	2.601E+9	   19.9858	   21.2368	    7.1550	  -15.6711	
 -510.0000	6.795E-12	2.549E+9	   19.9858	   21.2368	    7.1550	  -15.6711	
 -520.0000	6.790E-12	2.597E+9	   19.9884	   21.2395	    7.1531	  -15.6724	
 -530.0000	6.797E-12	2.538E+9	   19.9910	   21.2405	    7.1682	  -15.6462	
 -540.0000	6.787E-12	2.569E+9	   20.0039	   21.2430	    7.1546	  -15.6671	
 -550.0000	6.796E-12	2.548E+9	   20.0039	   21.2430	    7.1546	  -15.6671	
 -560.0000	6.792E-12	2.672E+9	   20.0116	   21.2450	    7.1531	  -15.6683	
 -570.0000	6.789E-12	2.779E+9	   20.0142	   21.2459	    7.1480	  -15.6761	
 -580.0000	6.791E-12	2.673E+9	   20.0167	   21.2448	    7.1467	  -15.6791	
 -590.0000	6.791E-12	2.579E+9	   20.0167	   21.2478	    7.1490	  -15.6732	
 -600.0000	6.790E-12	2.532E+9	   20.0090	   21.2450	    7.1407	  -15.6890	
