GCD Test
Bias: 5000.000000
CV_N4789_20_UR_DIODE_GR_Irradiated_Annealed_60C_0min
Date/Time: 3/7/2022 11:20:40 AM
Sensor Name: DIODE
Type: 
Annealing Status: Irradiated and Annealed at 60C for 0 minutes
Environment: 
Tester: Andrew Kent

Time Delay per Ramp Step (s): 0.500

CV Time Delay per Measurement (s) :0.500

AC Voltage (V): 0.500

Current Number of measurements per voltage: 1.000

IV Time Delay per Measurement (s) :0.000


BiasVoltage	LCR_Cp_freq1000.0	LCR_Cp_freq10000.0	LCR_Rp_freq1000.0	LCR_Rp_freq10000.0	Temperature	Air_Temp	Humidity	Dewpoint	
  -10.0000	1.825E-10	4.439E-11	8.645E+5	2.824E+5	   -0.1023	   18.4693	   24.0708	   -2.4195	
  -20.0000	1.502E-10	4.595E-11	1.289E+6	3.383E+5	   -0.1075	   18.4674	   24.1293	   -2.3884	
  -30.0000	1.325E-10	4.589E-11	1.586E+6	3.826E+5	   -0.1075	   18.4457	   24.1502	   -2.3951	
  -40.0000	1.206E-10	4.532E-11	1.819E+6	4.215E+5	   -0.1049	   18.4349	   24.1588	   -2.3994	
  -50.0000	1.122E-10	4.454E-11	2.003E+6	4.577E+5	   -0.1023	   18.4201	   24.1920	   -2.3934	
  -60.0000	1.052E-10	4.360E-11	2.172E+6	4.930E+5	   -0.0998	   18.4263	   24.1986	   -2.3844	
  -70.0000	9.979E-11	4.284E-11	2.314E+6	5.247E+5	   -0.0972	   18.4320	   24.2290	   -2.3627	
  -80.0000	9.513E-11	4.204E-11	2.445E+6	5.560E+5	   -0.0972	   18.3990	   24.2287	   -2.3908	
  -90.0000	9.099E-11	4.125E-11	2.572E+6	5.865E+5	   -0.0870	   18.3836	   24.2581	   -2.3874	
 -100.0000	8.752E-11	4.049E-11	2.681E+6	6.165E+5	   -0.0844	   18.3877	   24.2755	   -2.3743	
 -110.0000	8.420E-11	3.980E-11	2.799E+6	6.453E+5	   -0.0844	   18.3815	   24.2796	   -2.3773	
 -120.0000	8.155E-11	3.914E-11	2.903E+6	6.739E+5	   -0.0742	   18.3542	   24.2935	   -2.3927	
 -130.0000	7.880E-11	3.852E-11	3.013E+6	7.017E+5	   -0.0614	   18.3478	   24.3099	   -2.3889	
 -140.0000	7.644E-11	3.791E-11	3.107E+6	7.293E+5	   -0.0588	   18.3680	   24.3302	   -2.3606	
 -150.0000	7.423E-11	3.728E-11	3.201E+6	7.578E+5	   -0.0563	   18.3343	   24.3646	   -2.3700	
 -160.0000	7.218E-11	3.669E-11	3.294E+6	7.853E+5	   -0.0435	   18.3267	   24.3669	   -2.3752	
 -170.0000	7.033E-11	3.616E-11	3.378E+6	8.117E+5	   -0.0461	   18.3164	   24.3760	   -2.3789	
 -180.0000	6.850E-11	3.559E-11	3.473E+6	8.399E+5	   -0.0384	   18.3164	   24.3880	   -2.3723	
 -190.0000	6.675E-11	3.503E-11	3.571E+6	8.685E+5	   -0.0333	   18.2992	   24.3985	   -2.3810	
 -200.0000	6.509E-11	3.451E-11	3.670E+6	8.972E+5	   -0.0230	   18.2861	   24.4190	   -2.3807	
 -220.0000	6.181E-11	3.341E-11	3.896E+6	9.598E+5	   -0.0205	   18.2950	   24.4364	   -2.3636	
 -240.0000	5.860E-11	3.234E-11	4.168E+6	1.031E+6	   -0.0179	   18.2715	   24.4595	   -2.3708	
 -260.0000	5.526E-11	3.119E-11	4.520E+6	1.118E+6	   -0.0128	   18.2608	   24.4870	   -2.3646	
 -280.0000	5.185E-11	3.002E-11	4.959E+6	1.226E+6	   -0.0154	   18.2406	   24.4896	   -2.3803	
 -300.0000	4.842E-11	2.881E-11	5.488E+6	1.364E+6	   -0.0154	   18.2406	   24.5130	   -2.3674	
 -320.0000	4.498E-11	2.758E-11	6.118E+6	1.541E+6	   -0.0154	   18.2253	   24.5300	   -2.3710	
 -340.0000	4.146E-11	2.634E-11	6.868E+6	1.786E+6	   -0.0128	   18.2208	   24.5784	   -2.3482	
 -360.0000	3.801E-11	2.513E-11	7.712E+6	2.149E+6	   -0.0077	   18.2334	   24.5886	   -2.3320	
 -380.0000	3.455E-11	2.406E-11	8.668E+6	2.696E+6	   -0.0128	   18.2028	   24.6075	   -2.3475	
 -400.0000	3.126E-11	2.320E-11	9.767E+6	3.518E+6	   -0.0077	   18.1882	   24.6287	   -2.3483	
 -440.0000	2.593E-11	2.217E-11	1.256E+7	6.206E+6	   -0.0077	   18.1892	   24.6382	   -2.3422	
 -480.0000	2.326E-11	2.177E-11	1.546E+7	9.470E+6	   -0.0102	   18.1773	   24.6385	   -2.3521	
 -520.0000	2.214E-11	2.163E-11	1.730E+7	1.190E+7	   -0.0102	   18.1461	   24.6379	   -2.3789	
 -560.0000	2.161E-11	2.156E-11	1.825E+7	1.344E+7	   -0.0102	   18.1265	   24.6410	   -2.3937	
 -600.0000	2.132E-11	2.152E-11	1.877E+7	1.423E+7	   -0.0154	   18.1317	   24.6581	   -2.3800	
 -640.0000	2.112E-11	2.149E-11	1.864E+7	1.468E+7	   -0.0154	   18.1500	   24.6765	   -2.3545	
 -680.0000	2.099E-11	2.146E-11	1.844E+7	1.484E+7	   -0.0154	   18.0996	   24.7002	   -2.3843	
 -720.0000	2.084E-11	2.145E-11	1.797E+7	1.473E+7	   -0.0205	   18.0994	   24.7103	   -2.3789	
 -760.0000	2.075E-11	2.143E-11	1.727E+7	1.452E+7	   -0.0230	   18.1217	   24.7147	   -2.3575	
 -800.0000	2.068E-11	2.141E-11	1.668E+7	1.413E+7	   -0.0307	   18.0958	   24.7498	   -2.3604	
 -840.0000	2.036E-11	2.137E-11	1.587E+7	1.363E+7	   -0.0307	   18.0958	   24.7581	   -2.3559	
 -880.0000	2.028E-11	2.136E-11	1.506E+7	1.315E+7	   -0.0358	   18.0689	   24.7748	   -2.3696	
 -920.0000	2.016E-11	2.134E-11	1.429E+7	1.265E+7	   -0.0358	   18.0486	   24.7736	   -2.3874	
 -960.0000	2.012E-11	2.132E-11	1.346E+7	1.205E+7	   -0.0384	   18.0548	   24.7818	   -2.3778	
-1000.0000	1.997E-11	2.131E-11	1.259E+7	1.148E+7	   -0.0409	   18.0253	   24.7868	   -2.3999	
