GCD Test
Bias: 5000.000000
CV_D0_CO144_LargeDiode_GRConnected_Irradiated_60min
Date/Time: 9/9/2021 1:24:30 PM
Sensor Name: CO144
Type: N
Annealing Status: Irradiated and Annealed at 60C for 60 min
Environment: -20C
Tester: Andrew Kent

Time Delay per Ramp Step (s): 0.500

CV Time Delay per Measurement (s) :0.500

AC Voltage (V): 0.500

Current Number of measurements per voltage: 4.000

IV Time Delay per Measurement (s) :0.000


BiasVoltage	LCR_Cp_freq1000.0	LCR_Cp_freq10000.0	LCR_Rp_freq1000.0	LCR_Rp_freq10000.0	Temperature	Air_Temp	Humidity	Dewpoint	
    1.0000	1.867E-11	1.826E-11	1.824E+6	1.803E+6	  -19.9423	   13.7451	    4.4213	  -26.5724	
    2.0000	2.161E-11	1.830E-11	1.893E+6	1.819E+6	  -19.9346	   13.8957	    4.4026	  -26.5120	
    3.0000	2.430E-11	1.833E-11	1.915E+6	1.842E+6	  -19.9499	   13.9379	    4.3868	  -26.5213	
    4.0000	2.560E-11	1.834E-11	1.965E+6	1.859E+6	  -19.9702	   13.9349	    4.4010	  -26.4882	
    5.0000	2.670E-11	1.836E-11	1.990E+6	1.866E+6	  -19.9880	   13.9040	    4.3833	  -26.5538	
    6.0000	2.755E-11	1.837E-11	2.017E+6	1.891E+6	  -20.0313	   13.8043	    4.3814	  -26.6289	
    7.0000	2.828E-11	1.838E-11	2.044E+6	1.884E+6	  -20.0415	   13.7716	    4.3678	  -26.6857	
    8.0000	2.895E-11	1.839E-11	2.065E+6	1.907E+6	  -20.0542	   13.7716	    4.3605	  -26.7038	
    9.0000	2.956E-11	1.840E-11	2.086E+6	1.909E+6	  -20.0415	   13.8453	    4.3476	  -26.6841	
   10.0000	3.024E-11	1.842E-11	2.092E+6	1.875E+6	  -20.0567	   13.8453	    4.3311	  -26.7252	
   20.0000	3.433E-11	1.849E-11	2.246E+6	1.945E+6	  -20.0567	   13.6629	    4.3156	  -26.8927	
   30.0000	3.637E-11	1.854E-11	2.398E+6	1.978E+6	  -20.0491	   13.5635	    4.3242	  -26.9413	
   40.0000	3.753E-11	1.859E-11	2.532E+6	2.019E+6	  -20.0287	   13.5059	    4.3223	  -26.9866	
   50.0000	3.815E-11	1.862E-11	2.670E+6	2.066E+6	  -19.9753	   13.7858	    4.3267	  -26.7783	
   60.0000	3.890E-11	1.865E-11	2.768E+6	2.102E+6	  -19.9626	   13.6539	    4.3428	  -26.8309	
   70.0000	3.909E-11	1.868E-11	2.889E+6	2.128E+6	  -19.9550	   13.6539	    4.3770	  -26.7460	
   80.0000	3.923E-11	1.869E-11	2.999E+6	2.186E+6	  -19.9372	   13.6277	    4.4130	  -26.6755	
   90.0000	3.878E-11	1.868E-11	3.134E+6	2.234E+6	  -19.9473	   13.4731	    4.4605	  -26.6686	
  100.0000	3.875E-11	1.870E-11	3.238E+6	2.272E+6	  -19.9473	   13.7322	    4.4614	  -26.4832	
  120.0000	3.826E-11	1.874E-11	3.486E+6	2.350E+6	  -19.9423	   13.7659	    4.4478	  -26.4925	
  140.0000	3.760E-11	1.875E-11	3.720E+6	2.446E+6	  -19.9855	   13.7009	    4.4377	  -26.5632	
  160.0000	3.734E-11	1.876E-11	3.901E+6	2.511E+6	  -20.0186	   13.7403	    4.4364	  -26.5385	
  180.0000	3.691E-11	1.876E-11	4.091E+6	2.603E+6	  -20.0415	   13.7403	    4.4804	  -26.4312	
  200.0000	3.623E-11	1.877E-11	4.307E+6	2.674E+6	  -20.0516	   13.6584	    4.4896	  -26.4670	
  220.0000	3.590E-11	1.877E-11	4.468E+6	2.757E+6	  -20.0618	   13.5981	    4.4918	  -26.5042	
  240.0000	3.533E-11	1.875E-11	4.660E+6	2.859E+6	  -20.0644	   13.5333	    4.4987	  -26.5333	
  260.0000	3.478E-11	1.875E-11	4.853E+6	2.930E+6	  -20.0593	   13.5152	    4.5123	  -26.5133	
  280.0000	3.455E-11	1.875E-11	4.983E+6	2.983E+6	  -20.0237	   13.5302	    4.5145	  -26.4973	
  300.0000	3.394E-11	1.875E-11	5.181E+6	3.062E+6	  -20.0109	   13.6950	    4.5063	  -26.4005	
  320.0000	3.359E-11	1.873E-11	5.330E+6	3.151E+6	  -19.9931	   13.6950	    4.4750	  -26.4763	
  340.0000	3.336E-11	1.873E-11	5.452E+6	3.208E+6	  -19.9804	   13.6056	    4.4873	  -26.5096	
  360.0000	3.281E-11	1.873E-11	5.654E+6	3.275E+6	  -19.9473	   13.7513	    4.4671	  -26.4558	
  380.0000	3.255E-11	1.871E-11	5.784E+6	3.378E+6	  -19.9524	   13.7269	    4.4712	  -26.4630	
  400.0000	3.215E-11	1.869E-11	5.954E+6	3.485E+6	  -19.9575	   13.8197	    4.4731	  -26.3928	
  420.0000	3.163E-11	1.866E-11	6.161E+6	3.606E+6	  -19.9753	   13.5181	    4.4522	  -26.6569	
  440.0000	3.105E-11	1.863E-11	6.398E+6	3.728E+6	  -19.9906	   13.6684	    4.4326	  -26.5986	
  460.0000	3.080E-11	1.859E-11	6.529E+6	3.840E+6	  -19.9982	   13.6684	    4.4288	  -26.6079	
  480.0000	3.047E-11	1.857E-11	6.687E+6	3.888E+6	  -20.0109	   13.7587	    4.4317	  -26.5371	
  500.0000	3.015E-11	1.855E-11	6.846E+6	3.989E+6	  -20.0211	   13.6551	    4.4175	  -26.6452	
  520.0000	2.982E-11	1.853E-11	7.015E+6	4.095E+6	  -20.0389	   13.6807	    4.4349	  -26.5845	
  540.0000	2.964E-11	1.851E-11	7.131E+6	4.188E+6	  -20.0389	   13.6676	    4.4254	  -26.6170	
  560.0000	2.931E-11	1.850E-11	7.308E+6	4.263E+6	  -20.0160	   13.6198	    4.4127	  -26.6818	
  580.0000	2.903E-11	1.849E-11	7.466E+6	4.374E+6	  -20.0033	   13.6404	    4.4127	  -26.6672	
  600.0000	2.880E-11	1.848E-11	7.602E+6	4.465E+6	  -19.9931	   13.6404	    4.4203	  -26.6486	
  620.0000	2.857E-11	1.847E-11	7.737E+6	4.542E+6	  -19.9855	   13.7188	    4.4197	  -26.5963	
  640.0000	2.823E-11	1.847E-11	7.933E+6	4.628E+6	  -19.9880	   13.6111	    4.4358	  -26.6313	
  660.0000	2.791E-11	1.844E-11	8.110E+6	4.818E+6	  -19.9779	   13.6063	    4.4485	  -26.6038	
  680.0000	2.763E-11	1.844E-11	8.295E+6	4.898E+6	  -19.9830	   13.5029	    4.4336	  -26.7132	
  700.0000	2.751E-11	1.843E-11	8.359E+6	4.957E+6	  -20.0059	   13.5547	    4.4260	  -26.6952	
  720.0000	2.721E-11	1.842E-11	8.536E+6	5.097E+6	  -20.0160	   13.5258	    4.4149	  -26.7428	
  740.0000	2.696E-11	1.841E-11	8.688E+6	5.229E+6	  -20.0262	   13.5258	    4.4118	  -26.7505	
  760.0000	2.667E-11	1.839E-11	8.892E+6	5.382E+6	  -20.0211	   13.5187	    4.3941	  -26.7992	
  780.0000	2.642E-11	1.839E-11	9.043E+6	5.472E+6	  -20.0059	   13.5187	    4.4121	  -26.7548	
  800.0000	2.623E-11	1.838E-11	9.148E+6	5.581E+6	  -19.9931	   13.5931	    4.4260	  -26.6681	
  820.0000	2.596E-11	1.837E-11	9.332E+6	5.721E+6	  -19.9855	   13.4658	    4.4295	  -26.7495	
  840.0000	2.579E-11	1.836E-11	9.426E+6	5.796E+6	  -20.0033	   13.5416	    4.4349	  -26.6828	
  860.0000	2.556E-11	1.835E-11	9.570E+6	5.999E+6	  -20.0084	   13.4245	    4.4228	  -26.7949	
  880.0000	2.525E-11	1.834E-11	9.794E+6	6.137E+6	  -19.9982	   13.5873	    4.4137	  -26.7024	
  900.0000	2.496E-11	1.833E-11	9.999E+6	6.294E+6	  -19.9880	   13.5356	    4.3805	  -26.8209	
  920.0000	2.473E-11	1.832E-11	1.016E+7	6.480E+6	  -19.9779	   13.4637	    4.3694	  -26.8990	
  940.0000	2.452E-11	1.831E-11	1.027E+7	6.651E+6	  -19.9931	   13.5709	    4.3510	  -26.8689	
  960.0000	2.433E-11	1.830E-11	1.040E+7	6.784E+6	  -19.9906	   13.6633	    4.3561	  -26.7912	
  980.0000	2.406E-11	1.829E-11	1.061E+7	6.944E+6	  -20.0033	   13.5674	    4.3688	  -26.8274	
 1000.0000	2.389E-11	1.829E-11	1.067E+7	7.049E+6	  -20.0084	   13.7241	    4.3653	  -26.7255	
 1020.0000	2.364E-11	1.828E-11	1.085E+7	7.299E+6	  -20.0313	   13.5375	    4.3767	  -26.8289	
 1040.0000	2.338E-11	1.827E-11	1.102E+7	7.417E+6	  -20.0364	   13.3428	    4.3906	  -26.9320	
 1060.0000	2.317E-11	1.826E-11	1.112E+7	7.668E+6	  -20.0211	   13.5316	    4.3877	  -26.8057	
 1080.0000	2.297E-11	1.826E-11	1.123E+7	7.867E+6	  -20.0059	   13.5716	    4.3944	  -26.7610	
 1100.0000	2.272E-11	1.825E-11	1.142E+7	8.039E+6	  -19.9957	   13.5815	    4.4121	  -26.7104	
