GCD Test
Bias: 5000.000000
CV_D0_CO138_LargeDiode_GRConnected_Irradiated_90min
Date/Time: 8/4/2021 3:51:12 PM
Sensor Name: CO138
Type: N
Annealing Status: Irradiated and Annealed at 60C for 90 minute
Environment: -20C
Tester: Andrew Kent

Time Delay per Ramp Step (s): 0.500

CV Time Delay per Measurement (s) :0.500

AC Voltage (V): 0.500

Current Number of measurements per voltage: 4.000

IV Time Delay per Measurement (s) :0.000


BiasVoltage	LCR_Cp_freq1000.0	LCR_Cp_freq10000.0	LCR_Rp_freq1000.0	LCR_Rp_freq10000.0	Temperature	Air_Temp	Humidity	Dewpoint	
    1.0000	3.762E-11	2.023E-11	1.745E+6	1.456E+6	  -20.0287	    8.3266	    2.4643	  -36.3606	
    2.0000	4.128E-11	2.026E-11	1.885E+6	1.516E+6	  -20.0084	    8.3055	    2.4560	  -36.4078	
    3.0000	4.324E-11	2.029E-11	2.007E+6	1.563E+6	  -20.0415	    8.3150	    2.4576	  -36.3951	
    4.0000	4.465E-11	2.030E-11	2.105E+6	1.604E+6	  -20.0593	    8.4697	    2.4554	  -36.3002	
    5.0000	4.562E-11	2.032E-11	2.185E+6	1.632E+6	  -20.1203	    8.5660	    2.5149	  -35.9985	
    6.0000	4.599E-11	2.033E-11	2.274E+6	1.662E+6	  -20.1356	    8.6680	    2.5402	  -35.8305	
    7.0000	4.632E-11	2.034E-11	2.350E+6	1.687E+6	  -20.1381	    8.7984	    2.6028	  -35.5003	
    8.0000	4.680E-11	2.036E-11	2.414E+6	1.708E+6	  -20.1025	    8.8700	    2.7173	  -35.0218	
    9.0000	4.694E-11	2.037E-11	2.486E+6	1.736E+6	  -20.0745	    8.9543	    2.7638	  -34.7945	
   10.0000	4.718E-11	2.039E-11	2.552E+6	1.745E+6	  -20.0338	    9.0742	    2.8412	  -34.4351	
   20.0000	4.621E-11	2.034E-11	3.165E+6	1.983E+6	  -19.9626	    9.1129	    2.9247	  -34.1165	
   30.0000	4.491E-11	2.025E-11	3.671E+6	2.179E+6	  -19.9321	    9.1817	    2.9655	  -33.9294	
   40.0000	4.362E-11	2.016E-11	4.114E+6	2.333E+6	  -19.8990	    9.2155	    3.0262	  -33.7009	
   50.0000	4.231E-11	2.007E-11	4.535E+6	2.494E+6	  -19.8888	    9.2899	    3.1006	  -33.4034	
   60.0000	4.104E-11	1.998E-11	4.939E+6	2.658E+6	  -19.8965	    9.3567	    3.1357	  -33.2429	
   70.0000	3.987E-11	1.992E-11	5.332E+6	2.800E+6	  -19.9270	    9.3567	    3.1879	  -33.0745	
   80.0000	3.881E-11	1.983E-11	5.707E+6	2.963E+6	  -19.9830	    9.3989	    3.2517	  -32.8427	
   90.0000	3.779E-11	1.976E-11	6.088E+6	3.108E+6	  -20.0338	    9.4232	    3.2941	  -32.6934	
  100.0000	3.699E-11	1.972E-11	6.430E+6	3.249E+6	  -20.0644	    9.4518	    3.3229	  -32.5845	
  120.0000	3.563E-11	1.961E-11	7.110E+6	3.512E+6	  -20.0796	    9.5052	    3.3574	  -32.4417	
  140.0000	3.441E-11	1.952E-11	7.764E+6	3.809E+6	  -20.0974	    9.5202	    3.4364	  -32.1920	
  160.0000	3.337E-11	1.943E-11	8.417E+6	4.104E+6	  -20.0974	    9.5430	    3.4861	  -32.0283	
  180.0000	3.239E-11	1.935E-11	9.082E+6	4.408E+6	  -20.0847	    9.5766	    3.5462	  -31.8286	
  200.0000	3.152E-11	1.927E-11	9.760E+6	4.768E+6	  -20.0237	    9.5868	    3.6268	  -31.5889	
  220.0000	3.062E-11	1.919E-11	1.050E+7	5.163E+6	  -19.9931	    9.5974	    3.6708	  -31.4567	
  240.0000	2.972E-11	1.912E-11	1.131E+7	5.662E+6	  -19.9575	    9.6163	    3.6923	  -31.3829	
  260.0000	2.885E-11	1.905E-11	1.219E+7	6.209E+6	  -19.9219	    9.6454	    3.7726	  -31.1389	
  280.0000	2.796E-11	1.898E-11	1.321E+7	6.927E+6	  -19.9219	    9.6511	    3.8223	  -30.9988	
  300.0000	2.707E-11	1.891E-11	1.439E+7	7.757E+6	  -19.9245	    9.6511	    3.8782	  -30.8473	
  320.0000	2.622E-11	1.887E-11	1.576E+7	8.840E+6	  -19.9473	    9.6687	    4.0095	  -30.4872	
  340.0000	2.541E-11	1.882E-11	1.739E+7	1.016E+7	  -19.9855	    9.6836	    4.0977	  -30.2486	
  360.0000	2.462E-11	1.878E-11	1.930E+7	1.179E+7	  -20.0109	    9.6979	    4.1648	  -30.0681	
  380.0000	2.385E-11	1.873E-11	2.159E+7	1.393E+7	  -20.0364	    9.7080	    4.2236	  -29.9134	
  400.0000	2.314E-11	1.870E-11	2.434E+7	1.661E+7	  -20.0822	    9.7065	    4.3495	  -29.6050	
  420.0000	2.246E-11	1.867E-11	2.771E+7	2.019E+7	  -20.0822	    9.7133	    4.4051	  -29.4659	
  440.0000	2.186E-11	1.864E-11	3.198E+7	2.502E+7	  -20.0822	    9.7185	    4.4342	  -29.3925	
  460.0000	2.129E-11	1.861E-11	3.749E+7	3.169E+7	  -20.0440	    9.7234	    4.5123	  -29.2042	
  480.0000	2.081E-11	1.860E-11	4.497E+7	4.152E+7	  -20.0313	    9.7334	    4.5595	  -29.0869	
  500.0000	2.040E-11	1.858E-11	5.544E+7	5.771E+7	  -20.0186	    9.7202	    4.5977	  -29.0076	
  520.0000	2.002E-11	1.856E-11	6.941E+7	8.589E+7	  -19.9702	    9.7291	    4.6464	  -28.8893	
  540.0000	1.970E-11	1.855E-11	8.876E+7	1.513E+8	  -19.9448	    9.7405	    4.6553	  -28.8610	
  560.0000	1.942E-11	1.854E-11	1.152E+8	4.305E+8	  -19.9397	    9.7567	    4.6686	  -28.8191	
  580.0000	1.918E-11	1.853E-11	1.512E+8	-6.442E+8	  -19.9397	    9.7615	    4.7100	  -28.7216	
  600.0000	1.901E-11	1.852E-11	2.008E+8	-1.975E+8	  -19.9702	    9.7683	    4.7849	  -28.5486	
  620.0000	1.886E-11	1.851E-11	2.731E+8	-1.310E+8	  -19.9855	    9.7735	    4.8065	  -28.4971	
  640.0000	1.875E-11	1.850E-11	4.067E+8	-1.035E+8	  -20.0084	    9.7703	    4.8529	  -28.3966	
  660.0000	1.866E-11	1.849E-11	6.439E+8	-8.755E+7	  -20.0313	    9.7683	    4.9051	  -28.2838	
  680.0000	1.851E-11	1.846E-11	9.592E+8	-7.994E+7	  -20.0415	    9.7738	    4.9140	  -28.2605	
  700.0000	1.845E-11	1.846E-11	1.814E+9	-7.443E+7	  -20.0516	    9.7789	    4.9763	  -28.1220	
  720.0000	1.845E-11	1.848E-11	2.474E+9	-7.150E+7	  -20.0491	    9.7822	    5.0478	  -27.9669	
  740.0000	1.845E-11	1.850E-11	1.663E+9	-6.739E+7	  -20.0338	    9.7932	    5.0677	  -27.9167	
  760.0000	1.844E-11	1.850E-11	1.074E+9	-6.841E+7	  -20.0186	    9.7961	    5.1110	  -27.8233	
  780.0000	1.841E-11	1.851E-11	6.996E+8	-7.171E+7	  -19.9880	    9.8092	    5.1265	  -27.7813	
  800.0000	1.840E-11	1.851E-11	5.271E+8	-7.103E+7	  -19.9779	    9.8059	    5.1493	  -27.7361	
  820.0000	1.836E-11	1.849E-11	4.674E+8	-7.300E+7	  -19.9626	    9.8110	    5.1717	  -27.6856	
  840.0000	1.835E-11	1.849E-11	4.383E+8	-7.407E+7	  -19.9550	    9.8070	    5.2024	  -27.6250	
  860.0000	1.834E-11	1.845E-11	4.168E+8	-7.788E+7	  -19.9575	    9.8041	    5.2328	  -27.5644	
  880.0000	1.831E-11	1.845E-11	4.305E+8	-7.597E+7	  -19.9677	    9.8190	    5.2489	  -27.5206	
  900.0000	1.831E-11	1.842E-11	4.292E+8	-8.029E+7	  -19.9880	    9.8289	    5.2647	  -27.4810	
  920.0000	1.830E-11	1.842E-11	4.291E+8	-7.959E+7	  -20.0059	    9.8451	    5.2796	  -27.4389	
  940.0000	1.828E-11	1.843E-11	4.195E+8	-7.424E+7	  -20.0237	    9.8477	    5.3004	  -27.3945	
  960.0000	1.824E-11	1.839E-11	4.357E+8	-7.541E+7	  -20.0313	    9.8487	    5.3112	  -27.3719	
  980.0000	1.822E-11	1.839E-11	4.083E+8	-7.504E+7	  -20.0389	    9.8608	    5.3036	  -27.3786	
 1000.0000	1.823E-11	1.839E-11	4.043E+8	-6.992E+7	  -20.0491	    9.8606	    5.3261	  -27.3332	
