GCD Test
Bias: 5000.000000
CV_D0_CO141_LargeDiode_GRConnected_Irradiated_60min
Date/Time: 9/3/2021 10:30:41 AM
Sensor Name: CO141
Type: N
Annealing Status: Irradiated and Annealed at 60C for 60 minutes
Environment: -20C
Tester: Andrew Kent

Time Delay per Ramp Step (s): 0.500

CV Time Delay per Measurement (s) :0.500

AC Voltage (V): 0.500

Current Number of measurements per voltage: 4.000

IV Time Delay per Measurement (s) :0.000


BiasVoltage	LCR_Cp_freq1000.0	LCR_Cp_freq10000.0	LCR_Rp_freq1000.0	LCR_Rp_freq10000.0	Temperature	Air_Temp	Humidity	Dewpoint	
    1.0000	3.231E-11	1.990E-11	1.589E+6	1.418E+6	  -18.9806	   11.1523	    5.8906	  -25.2977	
    2.0000	3.656E-11	1.993E-11	1.674E+6	1.470E+6	  -19.1333	   11.1657	    5.8593	  -25.3465	
    3.0000	3.848E-11	1.994E-11	1.765E+6	1.518E+6	  -19.3953	   11.1755	    5.8213	  -25.4107	
    4.0000	3.959E-11	1.994E-11	1.844E+6	1.567E+6	  -19.5352	   11.1900	    5.8109	  -25.4198	
    5.0000	4.029E-11	1.993E-11	1.919E+6	1.624E+6	  -19.6955	   11.1963	    5.7853	  -25.4638	
    6.0000	4.057E-11	1.994E-11	1.991E+6	1.672E+6	  -19.9601	   11.1469	    5.7600	  -25.5478	
    7.0000	4.050E-11	1.994E-11	2.072E+6	1.712E+6	  -20.0898	   11.1680	    5.7239	  -25.6013	
    8.0000	4.058E-11	1.995E-11	2.136E+6	1.760E+6	  -20.2627	   11.1346	    5.7144	  -25.6438	
    9.0000	4.046E-11	1.996E-11	2.209E+6	1.797E+6	  -20.4891	   11.1516	    5.6996	  -25.6600	
   10.0000	4.034E-11	1.997E-11	2.280E+6	1.839E+6	  -20.5883	   11.1349	    5.6743	  -25.7209	
   20.0000	4.196E-11	2.008E-11	2.728E+6	1.994E+6	  -20.7307	   11.1349	    5.6682	  -25.7325	
   30.0000	4.210E-11	2.015E-11	3.067E+6	2.100E+6	  -20.8273	   11.2626	    5.6518	  -25.6715	
   40.0000	4.182E-11	2.016E-11	3.372E+6	2.226E+6	  -20.9596	   11.2626	    5.6521	  -25.6709	
   50.0000	4.146E-11	2.017E-11	3.641E+6	2.297E+6	  -21.0918	   11.2108	    5.6404	  -25.7313	
   60.0000	4.089E-11	2.017E-11	3.900E+6	2.386E+6	  -21.1299	   11.0494	    5.6306	  -25.8675	
   70.0000	4.027E-11	2.016E-11	4.151E+6	2.469E+6	  -21.1884	   11.0494	    5.6335	  -25.8620	
   80.0000	3.993E-11	2.015E-11	4.354E+6	2.553E+6	  -21.2647	   11.0716	    5.6474	  -25.8189	
   90.0000	3.931E-11	2.014E-11	4.584E+6	2.644E+6	  -21.2800	   11.0837	    5.6553	  -25.7947	
  100.0000	3.879E-11	2.014E-11	4.795E+6	2.701E+6	  -21.2952	   11.1808	    5.6515	  -25.7316	
  120.0000	3.803E-11	2.016E-11	5.166E+6	2.794E+6	  -21.2978	   11.2131	    5.6496	  -25.7118	
  140.0000	3.712E-11	2.014E-11	5.539E+6	2.926E+6	  -21.2520	   11.2457	    5.6651	  -25.6581	
  160.0000	3.634E-11	2.011E-11	5.872E+6	3.072E+6	  -21.2266	   11.2791	    5.6765	  -25.6118	
  180.0000	3.571E-11	2.009E-11	6.166E+6	3.185E+6	  -21.1706	   11.1845	    5.6866	  -25.6610	
  200.0000	3.503E-11	2.007E-11	6.467E+6	3.312E+6	  -21.0638	   11.1959	    5.7052	  -25.6168	
  220.0000	3.434E-11	2.006E-11	6.771E+6	3.420E+6	  -21.0104	   11.1757	    5.7065	  -25.6291	
  240.0000	3.388E-11	2.003E-11	7.013E+6	3.546E+6	  -20.9291	   11.1547	    5.7170	  -25.6243	
  260.0000	3.332E-11	2.002E-11	7.283E+6	3.650E+6	  -20.7867	   11.1451	    5.7347	  -25.5974	
  280.0000	3.279E-11	2.000E-11	7.548E+6	3.770E+6	  -20.7078	   11.1441	    5.7369	  -25.5939	
  300.0000	3.226E-11	1.995E-11	7.781E+6	3.929E+6	  -20.6214	   11.1274	    5.7505	  -25.5801	
  320.0000	3.176E-11	1.993E-11	8.045E+6	4.054E+6	  -20.4408	   11.1516	    5.7666	  -25.5318	
  340.0000	3.137E-11	1.991E-11	8.274E+6	4.195E+6	  -20.3594	   11.1683	    5.7698	  -25.5136	
  360.0000	3.088E-11	1.989E-11	8.565E+6	4.329E+6	  -20.2373	   11.1683	    5.7884	  -25.4782	
  380.0000	3.047E-11	1.986E-11	8.812E+6	4.511E+6	  -20.1483	   11.1362	    5.7966	  -25.4860	
  400.0000	3.006E-11	1.982E-11	9.082E+6	4.733E+6	  -19.9779	   11.0971	    5.8286	  -25.4541	
  420.0000	2.953E-11	1.980E-11	9.405E+6	4.946E+6	  -19.8990	   11.0997	    5.8390	  -25.4326	
  440.0000	2.896E-11	1.978E-11	9.750E+6	5.152E+6	  -19.8227	   11.1441	    5.8618	  -25.3574	
  460.0000	2.850E-11	1.976E-11	9.991E+6	5.397E+6	  -19.6675	   11.1154	    5.8861	  -25.3329	
  480.0000	2.803E-11	1.976E-11	1.014E+7	5.626E+6	  -19.6014	   11.1649	    5.9054	  -25.2608	
  500.0000	2.768E-11	1.977E-11	1.017E+7	5.788E+6	  -19.5454	   11.1649	    5.9244	  -25.2255	
  520.0000	2.758E-11	1.981E-11	1.019E+7	5.865E+6	  -19.4767	   11.1837	    5.9472	  -25.1695	
  540.0000	2.743E-11	1.989E-11	1.042E+7	5.877E+6	  -19.3928	   11.1447	    5.9804	  -25.1367	
  560.0000	2.728E-11	2.005E-11	1.069E+7	5.825E+6	  -19.3699	   11.0903	    6.0032	  -25.1346	
  580.0000	2.698E-11	2.026E-11	1.107E+7	5.911E+6	  -19.3394	   11.1788	    6.0104	  -25.0566	
  600.0000	2.671E-11	2.047E-11	1.146E+7	6.093E+6	  -19.3190	   11.1583	    6.0449	  -25.0085	
  620.0000	2.635E-11	2.064E-11	1.190E+7	6.392E+6	  -19.3165	   11.2238	    6.0541	  -24.9439	
  640.0000	2.600E-11	2.077E-11	1.243E+7	6.791E+6	  -19.3190	   11.2238	    6.0737	  -24.9082	
  660.0000	2.564E-11	2.088E-11	1.300E+7	7.162E+6	  -19.3444	   11.2213	    6.0882	  -24.8836	
  680.0000	2.525E-11	2.097E-11	1.372E+7	7.622E+6	  -19.3673	   11.1770	    6.1075	  -24.8812	
  700.0000	2.495E-11	2.105E-11	1.433E+7	7.987E+6	  -19.3953	   11.2577	    6.1107	  -24.8163	
  720.0000	2.465E-11	2.112E-11	1.510E+7	8.449E+6	  -19.4055	   11.1691	    6.1113	  -24.8801	
  740.0000	2.439E-11	2.117E-11	1.585E+7	8.903E+6	  -19.4513	   11.0681	    6.1319	  -24.9170	
  760.0000	2.412E-11	2.122E-11	1.674E+7	9.363E+6	  -19.4818	   10.8601	    6.1240	  -25.0837	
  780.0000	2.392E-11	2.126E-11	1.761E+7	9.869E+6	  -19.5174	   10.8601	    6.1135	  -25.1025	
  800.0000	2.373E-11	2.130E-11	1.841E+7	1.039E+7	  -19.5531	   10.6516	    6.1040	  -25.2723	
  820.0000	2.355E-11	2.134E-11	1.944E+7	1.083E+7	  -19.6217	   10.6126	    6.0727	  -25.3574	
  840.0000	2.339E-11	2.137E-11	2.054E+7	1.133E+7	  -19.6599	   10.5767	    6.0550	  -25.4158	
  860.0000	2.328E-11	2.140E-11	2.142E+7	1.174E+7	  -19.6930	   10.4562	    6.0297	  -25.5500	
  880.0000	2.319E-11	2.143E-11	2.231E+7	1.218E+7	  -19.8024	   10.4034	    5.9867	  -25.6671	
  900.0000	2.309E-11	2.145E-11	2.329E+7	1.261E+7	  -19.8380	   10.3800	    5.9564	  -25.7399	
  920.0000	2.302E-11	2.148E-11	2.424E+7	1.306E+7	  -19.8812	   10.3800	    5.9374	  -25.7749	
  940.0000	2.295E-11	2.151E-11	2.508E+7	1.335E+7	  -19.9677	   10.3465	    5.8931	  -25.8812	
  960.0000	2.290E-11	2.153E-11	2.587E+7	1.371E+7	  -20.0059	   10.3683	    5.8283	  -25.9862	
  980.0000	2.285E-11	2.156E-11	2.654E+7	1.397E+7	  -20.0389	   10.3978	    5.8102	  -25.9985	
 1000.0000	2.283E-11	2.158E-11	2.714E+7	1.425E+7	  -20.0796	   10.3454	    5.7805	  -26.0927	
 1020.0000	2.280E-11	2.160E-11	2.760E+7	1.442E+7	  -20.1559	   10.3064	    5.7400	  -26.1978	
 1040.0000	2.280E-11	2.162E-11	2.781E+7	1.464E+7	  -20.1864	   10.1999	    5.7195	  -26.3145	
 1060.0000	2.280E-11	2.164E-11	2.820E+7	1.468E+7	  -20.2348	   10.1999	    5.6986	  -26.3543	
 1080.0000	2.283E-11	2.167E-11	2.814E+7	1.465E+7	  -20.2755	   10.2057	    5.6841	  -26.3779	
 1100.0000	2.289E-11	2.170E-11	2.808E+7	1.452E+7	  -20.3085	   10.2338	    5.6344	  -26.4530	
