GCD Test
Bias: 5000.000000
CV_D0_CO140_LargeDiode_GRConnected_Irradiated_90min
Date/Time: 9/29/2021 5:12:46 PM
Sensor Name: CO140
Type: N
Annealing Status: Irradiated and Annealed at 60C for 90 min
Environment: -20C
Tester: Andrew Kent

Time Delay per Ramp Step (s): 0.500

CV Time Delay per Measurement (s) :0.500

AC Voltage (V): 0.500

Current Number of measurements per voltage: 4.000

IV Time Delay per Measurement (s) :0.000


BiasVoltage	LCR_Cp_freq1000.0	LCR_Cp_freq10000.0	LCR_Rp_freq1000.0	LCR_Rp_freq10000.0	Temperature	Air_Temp	Humidity	Dewpoint	
    1.0000	2.004E-11	1.445E-11	1.996E+6	1.904E+6	  -20.0135	   11.8431	    3.5468	  -30.2551	
    2.0000	2.382E-11	1.450E-11	2.073E+6	1.929E+6	  -20.0618	   11.9523	    3.6094	  -29.9956	
    3.0000	2.612E-11	1.454E-11	2.125E+6	1.947E+6	  -20.0974	   12.1321	    3.6695	  -29.6969	
    4.0000	2.789E-11	1.457E-11	2.162E+6	1.937E+6	  -20.1178	   12.2909	    3.7511	  -29.3542	
    5.0000	2.930E-11	1.460E-11	2.194E+6	1.934E+6	  -20.0847	   12.3674	    3.8533	  -29.0161	
    6.0000	3.073E-11	1.462E-11	2.213E+6	1.929E+6	  -20.0542	   12.4762	    3.9073	  -28.7921	
    7.0000	3.182E-11	1.465E-11	2.237E+6	1.918E+6	  -19.9931	   12.5278	    3.9981	  -28.5114	
    8.0000	3.281E-11	1.467E-11	2.260E+6	1.920E+6	  -19.9016	   12.5991	    4.1164	  -28.1498	
    9.0000	3.348E-11	1.469E-11	2.297E+6	1.918E+6	  -19.8634	   12.6719	    4.1765	  -27.9434	
   10.0000	3.410E-11	1.471E-11	2.331E+6	1.931E+6	  -19.8303	   12.6719	    4.2619	  -27.7261	
   20.0000	3.711E-11	1.481E-11	2.691E+6	2.038E+6	  -19.8151	   12.7562	    4.3121	  -27.5406	
   30.0000	3.763E-11	1.489E-11	3.023E+6	2.119E+6	  -19.8303	   12.8013	    4.4187	  -27.2455	
   40.0000	3.747E-11	1.493E-11	3.320E+6	2.221E+6	  -19.8939	   12.8656	    4.5689	  -26.8384	
   50.0000	3.699E-11	1.496E-11	3.604E+6	2.314E+6	  -19.9270	   12.9126	    4.6660	  -26.5768	
   60.0000	3.639E-11	1.497E-11	3.873E+6	2.405E+6	  -19.9753	   12.9266	    4.7951	  -26.2700	
   70.0000	3.580E-11	1.499E-11	4.124E+6	2.489E+6	  -20.0440	   12.9497	    4.9175	  -25.9786	
   80.0000	3.513E-11	1.500E-11	4.376E+6	2.566E+6	  -20.0796	   13.0164	    4.9848	  -25.7821	
   90.0000	3.460E-11	1.501E-11	4.603E+6	2.635E+6	  -20.0923	   13.0164	    5.0914	  -25.5503	
  100.0000	3.407E-11	1.502E-11	4.822E+6	2.703E+6	  -20.1000	   13.0897	    5.1701	  -25.3292	
  120.0000	3.314E-11	1.505E-11	5.238E+6	2.828E+6	  -20.0949	   13.0897	    5.2423	  -25.1768	
  140.0000	3.216E-11	1.505E-11	5.646E+6	2.966E+6	  -20.0618	   13.0880	    5.3770	  -24.8984	
  160.0000	3.130E-11	1.504E-11	6.025E+6	3.105E+6	  -20.0338	   13.1085	    5.4703	  -24.6935	
  180.0000	3.045E-11	1.502E-11	6.401E+6	3.251E+6	  -19.9880	   13.1471	    5.4475	  -24.7118	
  200.0000	2.970E-11	1.500E-11	6.761E+6	3.413E+6	  -19.9473	   13.1454	    5.3817	  -24.8472	
  220.0000	2.893E-11	1.497E-11	7.133E+6	3.590E+6	  -19.9321	   13.1551	    5.3858	  -24.8318	
  240.0000	2.815E-11	1.493E-11	7.529E+6	3.785E+6	  -19.9245	   13.1783	    5.3922	  -24.8021	
  260.0000	2.743E-11	1.489E-11	7.924E+6	4.002E+6	  -19.9397	   13.1574	    5.3435	  -24.9173	
  280.0000	2.664E-11	1.484E-11	8.325E+6	4.238E+6	  -19.9626	   13.1773	    5.3577	  -24.8737	
  300.0000	2.597E-11	1.479E-11	8.753E+6	4.490E+6	  -19.9830	   13.1919	    5.3438	  -24.8918	
  320.0000	2.535E-11	1.475E-11	9.187E+6	4.764E+6	  -20.0059	   13.2498	    5.3751	  -24.7856	
  340.0000	2.475E-11	1.471E-11	9.646E+6	5.063E+6	  -20.0364	   13.2418	    5.3197	  -24.9056	
  360.0000	2.417E-11	1.468E-11	1.013E+7	5.379E+6	  -20.0465	   13.2382	    5.3182	  -24.9115	
  380.0000	2.361E-11	1.464E-11	1.064E+7	5.721E+6	  -20.0618	   13.2504	    5.3928	  -24.7488	
  400.0000	2.308E-11	1.461E-11	1.119E+7	6.096E+6	  -20.0669	   13.2942	    5.4554	  -24.5895	
  420.0000	2.254E-11	1.458E-11	1.180E+7	6.507E+6	  -20.0567	   13.3108	    5.4817	  -24.5244	
  440.0000	2.202E-11	1.456E-11	1.245E+7	6.970E+6	  -20.0465	   13.3145	    5.4851	  -24.5147	
  460.0000	2.150E-11	1.453E-11	1.320E+7	7.490E+6	  -20.0313	   13.3533	    5.4997	  -24.4573	
  480.0000	2.098E-11	1.451E-11	1.405E+7	8.089E+6	  -19.9931	   13.3471	    5.5778	  -24.3054	
  500.0000	2.047E-11	1.448E-11	1.500E+7	8.786E+6	  -19.9804	   13.3459	    5.6319	  -24.1991	
  520.0000	1.995E-11	1.445E-11	1.610E+7	9.585E+6	  -19.9652	   13.3454	    5.6556	  -24.1528	
  540.0000	1.943E-11	1.443E-11	1.736E+7	1.050E+7	  -19.9473	   13.3226	    5.6531	  -24.1743	
  560.0000	1.894E-11	1.440E-11	1.875E+7	1.153E+7	  -19.9448	   13.3249	    5.6847	  -24.1106	
  580.0000	1.844E-11	1.438E-11	2.038E+7	1.270E+7	  -19.9499	   13.3093	    5.7005	  -24.0910	
  600.0000	1.799E-11	1.436E-11	2.227E+7	1.403E+7	  -19.9601	   13.3082	    5.7100	  -24.0733	
  620.0000	1.754E-11	1.434E-11	2.444E+7	1.554E+7	  -19.9880	   13.3141	    5.8144	  -23.8674	
  640.0000	1.713E-11	1.432E-11	2.693E+7	1.728E+7	  -20.0008	   13.3145	    5.8219	  -23.8526	
  660.0000	1.677E-11	1.431E-11	2.984E+7	1.925E+7	  -20.0186	   13.3112	    5.8643	  -23.7741	
  680.0000	1.643E-11	1.430E-11	3.329E+7	2.152E+7	  -20.0389	   13.3262	    5.9352	  -23.6292	
  700.0000	1.614E-11	1.429E-11	3.730E+7	2.410E+7	  -20.0465	   13.3186	    5.9077	  -23.6866	
  720.0000	1.587E-11	1.427E-11	4.176E+7	2.708E+7	  -20.0465	   13.3101	    5.9032	  -23.7011	
  740.0000	1.564E-11	1.427E-11	4.691E+7	3.041E+7	  -20.0440	   13.3068	    5.9330	  -23.6475	
  760.0000	1.544E-11	1.426E-11	5.247E+7	3.424E+7	  -20.0262	   13.3152	    5.9535	  -23.6028	
  780.0000	1.528E-11	1.425E-11	5.878E+7	3.851E+7	  -20.0211	   13.2843	    5.9649	  -23.6040	
  800.0000	1.512E-11	1.424E-11	6.536E+7	4.331E+7	  -20.0059	   13.2671	    6.0079	  -23.5362	
  820.0000	1.499E-11	1.423E-11	7.249E+7	4.857E+7	  -19.9880	   13.2330	    6.0481	  -23.4866	
  840.0000	1.489E-11	1.422E-11	7.933E+7	5.427E+7	  -19.9779	   13.2477	    6.0497	  -23.4729	
  860.0000	1.480E-11	1.421E-11	8.634E+7	6.057E+7	  -19.9702	   13.2415	    6.0348	  -23.5050	
  880.0000	1.472E-11	1.420E-11	9.214E+7	6.703E+7	  -19.9702	   13.2591	    6.0471	  -23.4693	
  900.0000	1.465E-11	1.420E-11	9.791E+7	7.373E+7	  -19.9753	   13.2573	    6.0882	  -23.3948	
  920.0000	1.459E-11	1.419E-11	1.019E+8	8.015E+7	  -19.9804	   13.2293	    6.1037	  -23.3868	
  940.0000	1.453E-11	1.418E-11	1.056E+8	8.699E+7	  -19.9931	   13.2104	    6.1211	  -23.3687	
  960.0000	1.448E-11	1.418E-11	1.097E+8	9.341E+7	  -20.0033	   13.2150	    6.1287	  -23.3515	
  980.0000	1.443E-11	1.417E-11	1.123E+8	9.971E+7	  -20.0135	   13.2240	    6.1376	  -23.3288	
 1000.0000	1.440E-11	1.417E-11	1.155E+8	1.056E+8	  -20.0160	   13.2171	    6.1278	  -23.3517	
 1020.0000	1.436E-11	1.417E-11	1.179E+8	1.114E+8	  -20.0186	   13.1699	    6.1319	  -23.3787	
 1040.0000	1.433E-11	1.416E-11	1.200E+8	1.172E+8	  -20.0237	   13.1896	    6.1641	  -23.3055	
 1060.0000	1.431E-11	1.416E-11	1.220E+8	1.227E+8	  -20.0211	   13.1980	    6.1632	  -23.3011	
 1080.0000	1.428E-11	1.415E-11	1.230E+8	1.268E+8	  -20.0186	   13.1783	    6.1860	  -23.2742	
 1100.0000	1.427E-11	1.415E-11	1.244E+8	1.313E+8	  -20.0033	   13.1397	    6.2321	  -23.2191	
