GCD Test
Bias: 5000.000000
CV_D0_CO142_LargeDiode_GRConnected_Irradiated_80min
Date/Time: 9/22/2021 4:17:15 PM
Sensor Name: CO142
Type: N
Annealing Status: Irradiated and Annealed at 60C for 80 min
Environment: -20C
Tester: Andrew Kent

Time Delay per Ramp Step (s): 0.500

CV Time Delay per Measurement (s) :0.500

AC Voltage (V): 0.500

Current Number of measurements per voltage: 4.000

IV Time Delay per Measurement (s) :0.000


BiasVoltage	LCR_Cp_freq1000.0	LCR_Cp_freq10000.0	LCR_Rp_freq1000.0	LCR_Rp_freq10000.0	Temperature	Air_Temp	Humidity	Dewpoint	
    1.0000	1.902E-11	1.826E-11	1.805E+6	1.749E+6	  -19.7515	   12.3640	    4.0547	  -28.4761	
    2.0000	2.502E-11	1.836E-11	1.877E+6	1.782E+6	  -19.6803	   12.3068	    4.0275	  -28.5880	
    3.0000	2.778E-11	1.840E-11	1.899E+6	1.782E+6	  -19.5327	   12.2435	    3.9820	  -28.7535	
    4.0000	2.949E-11	1.843E-11	1.943E+6	1.792E+6	  -19.4895	   12.2538	    3.9573	  -28.8124	
    5.0000	3.066E-11	1.845E-11	1.996E+6	1.813E+6	  -19.4767	   12.2877	    3.9317	  -28.8577	
    6.0000	3.169E-11	1.846E-11	2.037E+6	1.851E+6	  -19.5149	   12.2595	    3.9086	  -28.9400	
    7.0000	3.230E-11	1.847E-11	2.094E+6	1.878E+6	  -19.5734	   12.1729	    3.8811	  -29.0755	
    8.0000	3.264E-11	1.848E-11	2.164E+6	1.917E+6	  -19.6574	   12.1428	    3.8659	  -29.1381	
    9.0000	3.304E-11	1.849E-11	2.218E+6	1.946E+6	  -19.7133	   12.0836	    3.8763	  -29.1509	
   10.0000	3.336E-11	1.849E-11	2.272E+6	1.990E+6	  -19.8685	   12.1878	    3.8754	  -29.0807	
   20.0000	3.680E-11	1.858E-11	2.566E+6	2.079E+6	  -19.9245	   12.1953	    3.8748	  -29.0772	
   30.0000	3.816E-11	1.864E-11	2.817E+6	2.160E+6	  -19.9957	   12.2653	    3.8596	  -29.0700	
   40.0000	3.875E-11	1.869E-11	3.036E+6	2.227E+6	  -20.0822	   12.2606	    3.8254	  -29.1676	
   50.0000	3.892E-11	1.872E-11	3.246E+6	2.286E+6	  -20.0974	   12.2479	    3.7985	  -29.2511	
   60.0000	3.895E-11	1.876E-11	3.439E+6	2.339E+6	  -20.1127	   12.1729	    3.7906	  -29.3254	
   70.0000	3.899E-11	1.879E-11	3.609E+6	2.386E+6	  -20.0974	   12.1875	    3.7508	  -29.4270	
   80.0000	3.880E-11	1.882E-11	3.786E+6	2.417E+6	  -20.0745	   12.0946	    3.7306	  -29.5488	
   90.0000	3.871E-11	1.884E-11	3.939E+6	2.464E+6	  -20.0338	   12.0798	    3.7517	  -29.4993	
  100.0000	3.842E-11	1.886E-11	4.104E+6	2.498E+6	  -19.9677	   12.1662	    3.7495	  -29.4454	
  120.0000	3.779E-11	1.888E-11	4.431E+6	2.614E+6	  -19.9295	   12.1153	    3.7587	  -29.4550	
  140.0000	3.695E-11	1.889E-11	4.758E+6	2.731E+6	  -19.9117	   12.0935	    3.7559	  -29.4782	
  160.0000	3.618E-11	1.889E-11	5.068E+6	2.833E+6	  -19.9092	   12.0910	    3.7517	  -29.4916	
  180.0000	3.534E-11	1.887E-11	5.366E+6	2.976E+6	  -19.9117	   12.0653	    3.7505	  -29.5130	
  200.0000	3.450E-11	1.885E-11	5.681E+6	3.110E+6	  -19.9372	   12.0653	    3.7302	  -29.5702	
  220.0000	3.379E-11	1.883E-11	5.982E+6	3.257E+6	  -19.9626	   12.0407	    3.7385	  -29.5640	
  240.0000	3.302E-11	1.881E-11	6.298E+6	3.400E+6	  -20.0008	   12.0303	    3.7166	  -29.6330	
  260.0000	3.235E-11	1.877E-11	6.602E+6	3.579E+6	  -20.0211	   12.0516	    3.7163	  -29.6191	
  280.0000	3.181E-11	1.876E-11	6.870E+6	3.708E+6	  -20.0364	   11.9650	    3.7002	  -29.7252	
  300.0000	3.121E-11	1.873E-11	7.170E+6	3.863E+6	  -20.0593	   11.8917	    3.6796	  -29.8349	
  320.0000	3.069E-11	1.871E-11	7.455E+6	4.010E+6	  -20.0694	   11.8950	    3.6822	  -29.8254	
  340.0000	3.017E-11	1.869E-11	7.747E+6	4.164E+6	  -20.0644	   11.8950	    3.6771	  -29.8399	
  360.0000	2.966E-11	1.866E-11	8.059E+6	4.343E+6	  -20.0516	   11.9567	    3.6784	  -29.7933	
  380.0000	2.922E-11	1.864E-11	8.349E+6	4.511E+6	  -20.0211	   11.9751	    3.6660	  -29.8160	
  400.0000	2.879E-11	1.861E-11	8.640E+6	4.704E+6	  -20.0008	   11.9753	    3.6664	  -29.8149	
  420.0000	2.841E-11	1.858E-11	8.932E+6	4.932E+6	  -19.9931	   11.9541	    3.6550	  -29.8624	
  440.0000	2.794E-11	1.855E-11	9.303E+6	5.159E+6	  -19.9652	   11.9825	    3.6363	  -29.8965	
  460.0000	2.748E-11	1.852E-11	9.682E+6	5.415E+6	  -19.9702	   11.9171	    3.6195	  -29.9905	
  480.0000	2.704E-11	1.848E-11	1.008E+7	5.744E+6	  -19.9702	   11.9171	    3.5996	  -30.0486	
  500.0000	2.664E-11	1.844E-11	1.046E+7	6.025E+6	  -19.9626	   11.8967	    3.5813	  -30.1164	
  520.0000	2.615E-11	1.840E-11	1.092E+7	6.364E+6	  -19.9702	   11.8875	    3.5670	  -30.1646	
  540.0000	2.573E-11	1.836E-11	1.138E+7	6.677E+6	  -19.9804	   11.8641	    3.5538	  -30.2200	
  560.0000	2.531E-11	1.832E-11	1.188E+7	7.116E+6	  -19.9931	   11.9028	    3.5364	  -30.2447	
  580.0000	2.490E-11	1.830E-11	1.240E+7	7.527E+6	  -20.0109	   11.8432	    3.5588	  -30.2195	
  600.0000	2.448E-11	1.828E-11	1.300E+7	7.919E+6	  -20.0186	   11.8255	    3.5620	  -30.2224	
  620.0000	2.412E-11	1.826E-11	1.358E+7	8.355E+6	  -20.0262	   11.8255	    3.5639	  -30.2169	
  640.0000	2.370E-11	1.825E-11	1.432E+7	8.892E+6	  -20.0262	   11.8204	    3.5497	  -30.2624	
  660.0000	2.334E-11	1.823E-11	1.503E+7	9.432E+6	  -20.0237	   11.8173	    3.5421	  -30.2870	
  680.0000	2.297E-11	1.822E-11	1.580E+7	1.008E+7	  -20.0211	   11.7771	    3.5361	  -30.3326	
  700.0000	2.256E-11	1.821E-11	1.674E+7	1.073E+7	  -20.0237	   11.7061	    3.5316	  -30.3949	
  720.0000	2.220E-11	1.820E-11	1.767E+7	1.152E+7	  -20.0160	   11.7541	    3.5408	  -30.3345	
  740.0000	2.181E-11	1.819E-11	1.879E+7	1.225E+7	  -19.9906	   11.7968	    3.5319	  -30.3312	
  760.0000	2.147E-11	1.819E-11	1.990E+7	1.320E+7	  -19.9804	   11.7968	    3.5234	  -30.3565	
  780.0000	2.116E-11	1.818E-11	2.115E+7	1.416E+7	  -19.9779	   11.7734	    3.5066	  -30.4227	
  800.0000	2.082E-11	1.817E-11	2.270E+7	1.535E+7	  -19.9728	   11.7525	    3.4921	  -30.4807	
  820.0000	2.053E-11	1.817E-11	2.425E+7	1.652E+7	  -19.9906	   11.6773	    3.4791	  -30.5716	
  840.0000	2.025E-11	1.816E-11	2.605E+7	1.788E+7	  -19.9931	   11.6756	    3.4763	  -30.5813	
  860.0000	2.003E-11	1.816E-11	2.781E+7	1.937E+7	  -20.0160	   11.6985	    3.4507	  -30.6428	
  880.0000	1.982E-11	1.815E-11	2.983E+7	2.094E+7	  -20.0135	   11.7454	    3.4386	  -30.6469	
  900.0000	1.961E-11	1.814E-11	3.202E+7	2.258E+7	  -20.0237	   11.7454	    3.4162	  -30.7154	
  920.0000	1.944E-11	1.814E-11	3.433E+7	2.427E+7	  -20.0211	   11.7419	    3.4152	  -30.7207	
  940.0000	1.929E-11	1.813E-11	3.655E+7	2.615E+7	  -20.0186	   11.7402	    3.3922	  -30.7927	
  960.0000	1.917E-11	1.812E-11	3.852E+7	2.807E+7	  -20.0211	   11.6152	    3.3779	  -30.9227	
  980.0000	1.905E-11	1.812E-11	4.068E+7	2.998E+7	  -20.0008	   11.5590	    3.3884	  -30.9293	
 1000.0000	1.896E-11	1.811E-11	4.258E+7	3.192E+7	  -19.9830	   11.5442	    3.4013	  -30.8996	
 1020.0000	1.887E-11	1.811E-11	4.462E+7	3.336E+7	  -19.9830	   11.6242	    3.4054	  -30.8319	
 1040.0000	1.879E-11	1.810E-11	4.642E+7	3.567E+7	  -19.9855	   11.6242	    3.4162	  -30.7990	
 1060.0000	1.873E-11	1.809E-11	4.799E+7	3.730E+7	  -19.9931	   11.6697	    3.4184	  -30.7608	
 1080.0000	1.866E-11	1.809E-11	4.975E+7	3.895E+7	  -19.9855	   11.6062	    3.4206	  -30.7979	
 1100.0000	1.862E-11	1.808E-11	5.109E+7	4.062E+7	  -19.9906	   11.6376	    3.4203	  -30.7772	
