GCD Test
Bias: 5000.000000
CV_34252_008_PSS_HM_XX_DIODEHALF_Irradiated
Date/Time: 5/28/2021 5:24:28 PM
Sensor Name: DIODEHALF
Type: P
Annealing Status: Irradiated, Annealed for 80 min at 60C
Environment: RT
Tester: Andrew Kent

Time Delay per Ramp Step (s): 1.000

CV Time Delay per Measurement (s) :0.500

AC Voltage (V): 0.500

Current Number of measurements per voltage: 4.000

IV Time Delay per Measurement (s) :0.000


BiasVoltage	LCR_Cp_freq1000.0	LCR_Cp_freq10000.0	LCR_Rp_freq1000.0	LCR_Rp_freq10000.0	Temperature	Air_Temp	Humidity	Dewpoint	
  -10.0000	4.497E-12	4.209E-12	2.658E+7	1.908E+7	  -19.9066	   12.0507	    4.8688	  -26.7296	
  -20.0000	4.486E-12	4.162E-12	4.659E+7	2.979E+7	  -19.9499	   12.0395	    4.7650	  -26.9709	
  -30.0000	4.390E-12	4.130E-12	5.945E+7	3.922E+7	  -19.9652	   12.0584	    4.7116	  -27.0794	
  -40.0000	4.310E-12	4.116E-12	7.268E+7	4.851E+7	  -19.9728	   12.0007	    4.6670	  -27.2233	
  -50.0000	4.259E-12	4.110E-12	8.468E+7	5.645E+7	  -20.0109	   12.0583	    4.6186	  -27.2948	
  -60.0000	4.245E-12	4.106E-12	9.771E+7	6.318E+7	  -20.0287	   12.0288	    4.6186	  -27.3158	
  -70.0000	4.225E-12	4.101E-12	1.098E+8	6.966E+7	  -20.0364	   12.0241	    4.5980	  -27.3672	
  -80.0000	4.210E-12	4.099E-12	1.216E+8	7.498E+7	  -20.0669	   11.9690	    4.5471	  -27.5264	
  -90.0000	4.193E-12	4.096E-12	1.307E+8	8.041E+7	  -20.0898	   11.8866	    4.5180	  -27.6539	
 -100.0000	4.196E-12	4.094E-12	1.415E+8	8.528E+7	  -20.1076	   11.9051	    4.4639	  -27.7702	
 -110.0000	4.193E-12	4.093E-12	1.524E+8	8.966E+7	  -20.1203	   11.8879	    4.4522	  -27.8106	
 -120.0000	4.167E-12	4.103E-12	1.621E+8	9.204E+7	  -20.1330	   11.8879	    4.4067	  -27.9210	
 -130.0000	4.165E-12	4.102E-12	1.727E+8	9.563E+7	  -20.1457	   11.9046	    4.3982	  -27.9299	
 -140.0000	4.161E-12	4.101E-12	1.823E+8	9.918E+7	  -20.1559	   11.8810	    4.3384	  -28.0932	
 -150.0000	4.157E-12	4.099E-12	1.887E+8	1.031E+8	  -20.1534	   11.8713	    4.3102	  -28.1698	
 -160.0000	4.150E-12	4.098E-12	1.970E+8	1.060E+8	  -20.1585	   11.8538	    4.2777	  -28.2633	
 -170.0000	4.152E-12	4.097E-12	2.050E+8	1.088E+8	  -20.1356	   11.8259	    4.2008	  -28.4766	
 -180.0000	4.157E-12	4.096E-12	2.132E+8	1.122E+8	  -20.1407	   11.7992	    4.1581	  -28.6043	
 -190.0000	4.154E-12	4.095E-12	2.217E+8	1.158E+8	  -20.1407	   11.6977	    4.0873	  -28.8586	
 -200.0000	4.147E-12	4.094E-12	2.310E+8	1.197E+8	  -20.1381	   11.7080	    4.0098	  -29.0547	
 -210.0000	4.136E-12	4.093E-12	2.364E+8	1.212E+8	  -20.1432	   11.7945	    3.9662	  -29.1101	
 -220.0000	4.145E-12	4.092E-12	2.463E+8	1.241E+8	  -20.1381	   11.8831	    3.9143	  -29.1877	
 -230.0000	4.143E-12	4.092E-12	2.488E+8	1.263E+8	  -20.1279	   11.8023	    3.8637	  -29.3819	
 -240.0000	4.132E-12	4.090E-12	2.573E+8	1.310E+8	  -20.1152	   11.8282	    3.8321	  -29.4508	
 -250.0000	4.130E-12	4.090E-12	2.616E+8	1.338E+8	  -20.1076	   11.7879	    3.8077	  -29.5463	
 -260.0000	4.130E-12	4.089E-12	2.670E+8	1.373E+8	  -20.1101	   11.7715	    3.7938	  -29.5964	
 -270.0000	4.138E-12	4.089E-12	2.823E+8	1.400E+8	  -20.0949	   11.7127	    3.7312	  -29.8128	
 -280.0000	4.128E-12	4.087E-12	2.827E+8	1.431E+8	  -20.0796	   11.7209	    3.7198	  -29.8393	
 -290.0000	4.131E-12	4.087E-12	2.934E+8	1.456E+8	  -20.0694	   11.7225	    3.7350	  -29.7953	
 -300.0000	4.129E-12	4.086E-12	3.023E+8	1.495E+8	  -20.0542	   11.6641	    3.7255	  -29.8627	
 -310.0000	4.127E-12	4.086E-12	3.016E+8	1.507E+8	  -20.0516	   11.6521	    3.7087	  -29.9186	
 -320.0000	4.132E-12	4.086E-12	3.144E+8	1.540E+8	  -20.0465	   11.6226	    3.6885	  -29.9966	
 -330.0000	4.126E-12	4.084E-12	3.268E+8	1.577E+8	  -20.0211	   11.6763	    3.6879	  -29.9611	
 -340.0000	4.120E-12	4.084E-12	3.284E+8	1.610E+8	  -20.0033	   11.7115	    3.6755	  -29.9719	
 -350.0000	4.125E-12	4.083E-12	3.344E+8	1.654E+8	  -19.9855	   11.7115	    3.6739	  -29.9764	
 -360.0000	4.120E-12	4.083E-12	3.463E+8	1.677E+8	  -19.9855	   11.7114	    3.6638	  -30.0055	
 -370.0000	4.114E-12	4.082E-12	3.487E+8	1.713E+8	  -19.9753	   11.7228	    3.6667	  -29.9894	
 -380.0000	4.112E-12	4.082E-12	3.540E+8	1.734E+8	  -19.9677	   11.6578	    3.6698	  -30.0255	
 -390.0000	4.117E-12	4.081E-12	3.627E+8	1.780E+8	  -19.9626	   11.6742	    3.6442	  -30.0878	
 -400.0000	4.111E-12	4.081E-12	3.666E+8	1.805E+8	  -19.9499	   11.6405	    3.6404	  -30.1221	
 -410.0000	4.111E-12	4.080E-12	3.850E+8	1.860E+8	  -19.9448	   11.5401	    3.6603	  -30.1345	
 -420.0000	4.108E-12	4.080E-12	3.889E+8	1.880E+8	  -19.9397	   11.5437	    3.6701	  -30.1039	
 -430.0000	4.117E-12	4.079E-12	3.944E+8	1.918E+8	  -19.9295	   11.5841	    3.7040	  -29.9793	
 -440.0000	4.116E-12	4.079E-12	4.041E+8	1.936E+8	  -19.9194	   11.5054	    3.7315	  -29.9563	
 -450.0000	4.108E-12	4.079E-12	4.193E+8	1.975E+8	  -19.9143	   11.5320	    3.7489	  -29.8888	
 -460.0000	4.111E-12	4.079E-12	4.164E+8	2.005E+8	  -19.9168	   11.5234	    3.7321	  -29.9419	
 -470.0000	4.111E-12	4.079E-12	4.398E+8	2.023E+8	  -19.9219	   11.5555	    3.7249	  -29.9401	
 -480.0000	4.112E-12	4.079E-12	4.470E+8	2.066E+8	  -19.9321	   11.5462	    3.7264	  -29.9422	
 -490.0000	4.108E-12	4.078E-12	4.455E+8	2.113E+8	  -19.9372	   11.4778	    3.7138	  -30.0255	
 -500.0000	4.111E-12	4.078E-12	4.634E+8	2.146E+8	  -19.9473	   11.4496	    3.7198	  -30.0281	
 -510.0000	4.101E-12	4.078E-12	4.660E+8	2.160E+8	  -19.9473	   11.4565	    3.7362	  -29.9769	
 -520.0000	4.106E-12	4.078E-12	4.665E+8	2.180E+8	  -19.9524	   11.4448	    3.7549	  -29.9326	
 -530.0000	4.106E-12	4.078E-12	4.751E+8	2.208E+8	  -19.9473	   11.4318	    3.8030	  -29.8078	
 -540.0000	4.103E-12	4.077E-12	4.904E+8	2.243E+8	  -19.9499	   11.4331	    3.8213	  -29.7562	
 -550.0000	4.103E-12	4.078E-12	5.025E+8	2.244E+8	  -19.9601	   11.4459	    3.8314	  -29.7194	
 -560.0000	4.104E-12	4.077E-12	5.076E+8	2.287E+8	  -19.9677	   11.4274	    3.8409	  -29.7062	
 -570.0000	4.103E-12	4.077E-12	5.249E+8	2.295E+8	  -19.9677	   11.4445	    3.8574	  -29.6492	
 -580.0000	4.108E-12	4.077E-12	5.389E+8	2.319E+8	  -19.9753	   11.4373	    3.8722	  -29.6136	
 -590.0000	4.102E-12	4.077E-12	5.438E+8	2.329E+8	  -19.9855	   11.3668	    3.8937	  -29.6044	
 -600.0000	4.100E-12	4.077E-12	5.431E+8	2.356E+8	  -19.9906	   11.4920	    3.9086	  -29.4766	
 -610.0000	4.099E-12	4.078E-12	5.680E+8	2.375E+8	  -20.0033	   11.4920	    3.9165	  -29.4553	
 -620.0000	4.102E-12	4.078E-12	5.548E+8	2.376E+8	  -20.0109	   11.4871	    3.9016	  -29.4818	
 -630.0000	4.108E-12	4.077E-12	5.774E+8	2.394E+8	  -20.0033	   11.4600	    3.9013	  -29.5187	
 -640.0000	4.108E-12	4.078E-12	5.761E+8	2.398E+8	  -20.0109	   11.4897	    3.8757	  -29.5675	
 -650.0000	4.103E-12	4.077E-12	5.821E+8	2.418E+8	  -20.0109	   11.4365	    3.8634	  -29.6383	
 -660.0000	4.108E-12	4.077E-12	5.940E+8	2.454E+8	  -20.0186	   11.3491	    3.8008	  -29.8716	
 -670.0000	4.105E-12	4.078E-12	5.921E+8	2.426E+8	  -20.0211	   11.3698	    3.7641	  -29.9593	
 -680.0000	4.107E-12	4.078E-12	6.244E+8	2.434E+8	  -20.0237	   11.3126	    3.7188	  -30.1262	
 -690.0000	4.108E-12	4.078E-12	6.213E+8	2.458E+8	  -20.0186	   11.3816	    3.6477	  -30.2810	
 -700.0000	4.106E-12	4.078E-12	6.346E+8	2.461E+8	  -20.0186	   11.4475	    3.6278	  -30.2927	
 -710.0000	4.111E-12	4.078E-12	6.532E+8	2.470E+8	  -20.0287	   11.4337	    3.5939	  -30.4005	
 -720.0000	4.111E-12	4.078E-12	6.648E+8	2.475E+8	  -20.0287	   11.3321	    3.5275	  -30.6660	
 -730.0000	4.106E-12	4.078E-12	6.636E+8	2.468E+8	  -20.0262	   11.3952	    3.4747	  -30.7799	
 -740.0000	4.107E-12	4.078E-12	6.553E+8	2.464E+8	  -20.0237	   11.4179	    3.4456	  -30.8520	
 -750.0000	4.109E-12	4.078E-12	6.763E+8	2.492E+8	  -20.0287	   11.4101	    3.3931	  -30.9699	
 -760.0000	4.106E-12	4.078E-12	6.810E+8	2.486E+8	  -20.0262	   11.4106	    3.3545	  -31.1361	
 -770.0000	4.107E-12	4.079E-12	6.894E+8	2.466E+8	  -20.0262	   11.3146	    3.3340	  -31.2661	
 -780.0000	4.107E-12	4.079E-12	6.813E+8	2.487E+8	  -20.0287	   11.2975	    3.3346	  -31.2759	
 -790.0000	4.112E-12	4.079E-12	7.047E+8	2.463E+8	  -20.0287	   11.2891	    3.2641	  -31.5034	
 -800.0000	4.111E-12	4.079E-12	7.179E+8	2.491E+8	  -20.0313	   11.2451	    3.2369	  -31.6204	
 -810.0000	4.113E-12	4.079E-12	7.270E+8	2.474E+8	  -20.0186	   11.2127	    3.2059	  -31.7422	
 -820.0000	4.117E-12	4.080E-12	6.956E+8	2.468E+8	  -20.0160	   11.2948	    3.1711	  -31.7987	
 -830.0000	4.110E-12	4.080E-12	7.255E+8	2.479E+8	  -20.0160	   11.2668	    3.1379	  -31.9266	
 -840.0000	4.115E-12	4.081E-12	7.230E+8	2.477E+8	  -20.0160	   11.2668	    3.1113	  -32.0143	
 -850.0000	4.111E-12	4.080E-12	7.476E+8	2.472E+8	  -20.0059	   11.3095	    3.0813	  -32.0852	
 -860.0000	4.119E-12	4.081E-12	7.593E+8	2.475E+8	  -20.0109	   11.2994	    3.0696	  -32.1313	
 -870.0000	4.118E-12	4.081E-12	7.606E+8	2.460E+8	  -20.0033	   11.2643	    3.0670	  -32.1638	
 -880.0000	4.119E-12	4.081E-12	7.736E+8	2.453E+8	  -20.0033	   11.2415	    3.0357	  -32.2850	
 -890.0000	4.118E-12	4.081E-12	7.516E+8	2.462E+8	  -20.0008	   11.2754	    3.0250	  -32.2983	
 -900.0000	4.113E-12	4.081E-12	7.487E+8	2.447E+8	  -19.9931	   11.2767	    3.0022	  -32.3751	
 -910.0000	4.117E-12	4.081E-12	7.863E+8	2.424E+8	  -20.0033	   11.2316	    2.9927	  -32.4384	
 -920.0000	4.126E-12	4.082E-12	7.812E+8	2.432E+8	  -20.0160	   11.1661	    2.9927	  -32.4830	
 -930.0000	4.116E-12	4.082E-12	7.586E+8	2.416E+8	  -20.0211	   11.1893	    2.9624	  -32.5719	
 -940.0000	4.302E-12	4.091E-12	2.056E+8	1.180E+8	  -20.0135	   11.1846	    2.9624	  -32.5751	
 -950.0000	4.179E-12	4.082E-12	5.241E+8	2.436E+8	  -20.0084	   11.2041	    2.9418	  -32.6332	
 -960.0000	4.120E-12	4.083E-12	7.928E+8	2.411E+8	  -20.0084	   11.2203	    2.9361	  -32.6421	
 -970.0000	4.121E-12	4.083E-12	7.926E+8	2.382E+8	  -19.9982	   11.2648	    2.9099	  -32.7038	
 -980.0000	4.120E-12	4.083E-12	8.024E+8	2.379E+8	  -19.9957	   11.2475	    2.8896	  -32.7871	
 -990.0000	4.126E-12	4.083E-12	8.148E+8	2.394E+8	  -19.9957	   11.2302	    2.8846	  -32.8168	
-1000.0000	4.127E-12	4.114E-12	8.304E+8	3.703E+8	  -19.9982	   11.1330	    2.8586	  -32.9751	
