GCD Test
Bias: 5000.000000
CV_34341_013_PSS_HM_XX_DIODEQUARTER
Date/Time: 4/28/2021 3:06:22 PM
Sensor Name: DIODEQUARTER
Type: P
Annealing Status: Unirradiated
Environment: RT
Tester: Andrew Kent

Time Delay per Ramp Step (s): 0.500

CV Time Delay per Measurement (s) :0.500

AC Voltage (V): 0.500

Current Number of measurements per voltage: 1.000

IV Time Delay per Measurement (s) :0.000


BiasVoltage	LCR_Cp_freq1000.0	LCR_Rp_freq1000.0	Temperature	Air_Temp	Humidity	Dewpoint	
   -5.0000	1.648E-11	1.749E+9	   22.4654	   22.6376	    5.8985	  -16.9568	
  -10.0000	1.309E-11	2.602E+9	   22.4680	   22.6363	    5.9086	  -16.9374	
  -15.0000	1.149E-11	2.760E+9	   22.4654	   22.6363	    5.9064	  -16.9418	
  -20.0000	1.049E-11	3.015E+9	   22.4680	   22.6382	    5.9032	  -16.9468	
  -25.0000	9.790E-12	2.820E+9	   22.4654	   22.6364	    5.8988	  -16.9570	
  -30.0000	9.269E-12	3.003E+9	   22.4654	   22.6364	    5.8988	  -16.9570	
  -35.0000	8.833E-12	2.882E+9	   22.4680	   22.6357	    5.9035	  -16.9480	
  -40.0000	8.455E-12	2.849E+9	   22.4654	   22.6322	    5.9010	  -16.9556	
  -45.0000	8.129E-12	3.024E+9	   22.4654	   22.6383	    5.9045	  -16.9442	
  -50.0000	7.834E-12	2.869E+9	   22.4680	   22.6329	    5.9032	  -16.9506	
  -55.0000	7.558E-12	2.922E+9	   22.4654	   22.6349	    5.9073	  -16.9409	
  -60.0000	7.284E-12	3.109E+9	   22.4654	   22.6319	    5.9032	  -16.9513	
  -65.0000	7.012E-12	2.760E+9	   22.4654	   22.6329	    5.9222	  -16.9125	
  -70.0000	6.746E-12	3.058E+9	   22.4654	   22.6309	    5.9165	  -16.9253	
  -75.0000	6.550E-12	3.130E+9	   22.4680	   22.6363	    5.9190	  -16.9164	
  -80.0000	6.377E-12	3.130E+9	   22.4680	   22.6332	    5.9133	  -16.9301	
  -85.0000	6.240E-12	3.107E+9	   22.4654	   22.6384	    5.9222	  -16.9086	
  -90.0000	6.155E-12	2.818E+9	   22.4654	   22.6331	    5.9187	  -16.9194	
  -95.0000	6.109E-12	3.117E+9	   22.4654	   22.6329	    5.9203	  -16.9163	
 -100.0000	6.063E-12	2.465E+9	   22.4654	   22.6247	    5.9241	  -16.9146	
 -105.0000	5.743E-12	4.345E+8	   22.4654	   22.6286	    5.9187	  -16.9226	
 -110.0000	5.226E-12	2.330E+9	   22.4680	   22.6349	    5.9114	  -16.9327	
 -115.0000	5.208E-12	2.591E+9	   22.4654	   22.6372	    5.9228	  -16.9082	
 -120.0000	5.188E-12	2.629E+9	   22.4654	   22.6402	    5.9083	  -16.9352	
 -125.0000	5.174E-12	2.862E+9	   22.4680	   22.6345	    5.9070	  -16.9418	
 -130.0000	5.155E-12	2.976E+9	   22.4654	   22.6420	    5.9140	  -16.9225	
 -135.0000	5.146E-12	3.003E+9	   22.4654	   22.6313	    5.9042	  -16.9498	
 -140.0000	5.132E-12	3.063E+9	   22.4654	   22.6347	    5.9168	  -16.9220	
 -145.0000	5.118E-12	3.029E+9	   22.4654	   22.6347	    5.9168	  -16.9220	
 -150.0000	5.106E-12	3.047E+9	   22.4654	   22.6392	    5.9099	  -16.9327	
 -155.0000	5.095E-12	3.159E+9	   22.4654	   22.6343	    5.9111	  -16.9337	
 -160.0000	5.083E-12	2.823E+9	   22.4654	   22.6355	    5.9124	  -16.9303	
 -165.0000	5.075E-12	3.037E+9	   22.4654	   22.6355	    5.9124	  -16.9303	
 -170.0000	5.067E-12	2.921E+9	   22.4654	   22.6385	    5.9070	  -16.9390	
 -175.0000	5.055E-12	3.046E+9	   22.4654	   22.6357	    5.9089	  -16.9371	
 -180.0000	5.045E-12	2.866E+9	   22.4680	   22.6414	    5.9143	  -16.9223	
 -185.0000	5.034E-12	3.149E+9	   22.4654	   22.6370	    5.9026	  -16.9490	
 -190.0000	5.026E-12	2.953E+9	   22.4654	   22.6365	    5.9054	  -16.9436	
 -195.0000	5.015E-12	3.005E+9	   22.4654	   22.6365	    5.9054	  -16.9436	
 -200.0000	5.010E-12	2.994E+9	   22.4654	   22.6357	    5.9111	  -16.9327	
 -205.0000	4.999E-12	3.002E+9	   22.4654	   22.6358	    5.9244	  -16.9060	
 -210.0000	4.992E-12	3.193E+9	   22.4680	   22.6377	    5.9235	  -16.9065	
 -215.0000	4.988E-12	3.039E+9	   22.4654	   22.6377	    5.9235	  -16.9065	
 -220.0000	4.976E-12	3.226E+9	   22.4654	   22.6413	    5.9288	  -16.8931	
 -225.0000	4.972E-12	3.242E+9	   22.4654	   22.6432	    5.9342	  -16.8810	
 -230.0000	4.966E-12	3.121E+9	   22.4654	   22.6434	    5.9257	  -16.8980	
 -235.0000	4.960E-12	3.326E+9	   22.4654	   22.6425	    5.9250	  -16.8999	
 -240.0000	4.956E-12	3.201E+9	   22.4654	   22.6460	    5.9266	  -16.8942	
 -245.0000	4.953E-12	3.170E+9	   22.4654	   22.6399	    5.9209	  -16.9100	
 -250.0000	4.949E-12	3.133E+9	   22.4654	   22.6440	    5.9206	  -16.9077	
 -255.0000	4.948E-12	3.058E+9	   22.4654	   22.6433	    5.9364	  -16.8765	
 -260.0000	4.945E-12	3.232E+9	   22.4654	   22.6433	    5.9320	  -16.8854	
 -265.0000	4.949E-12	3.160E+9	   22.4654	   22.6433	    5.9320	  -16.8854	
 -270.0000	4.941E-12	3.068E+9	   22.4654	   22.6399	    5.9333	  -16.8853	
 -275.0000	4.946E-12	2.980E+9	   22.4654	   22.6423	    5.9342	  -16.8817	
 -280.0000	4.942E-12	3.113E+9	   22.4654	   22.6424	    5.9292	  -16.8917	
 -285.0000	4.944E-12	3.151E+9	   22.4654	   22.6462	    5.9314	  -16.8846	
 -290.0000	4.942E-12	3.259E+9	   22.4680	   22.6395	    5.9231	  -16.9058	
 -295.0000	4.938E-12	3.149E+9	   22.4680	   22.6395	    5.9320	  -16.8881	
 -300.0000	4.939E-12	3.447E+9	   22.4654	   22.6435	    5.9279	  -16.8935	
 -305.0000	4.941E-12	3.123E+9	   22.4680	   22.6460	    5.9231	  -16.9011	
 -310.0000	4.943E-12	3.304E+9	   22.4680	   22.6440	    5.9273	  -16.8943	
 -315.0000	4.936E-12	3.462E+9	   22.4680	   22.6395	    5.9279	  -16.8963	
 -320.0000	4.940E-12	3.346E+9	   22.4680	   22.6395	    5.9241	  -16.9039	
 -325.0000	4.936E-12	3.548E+9	   22.4654	   22.6452	    5.9241	  -16.8999	
 -330.0000	4.938E-12	3.241E+9	   22.4654	   22.6448	    5.9213	  -16.9059	
 -335.0000	4.937E-12	3.437E+9	   22.4654	   22.6440	    5.9194	  -16.9102	
 -340.0000	4.937E-12	3.434E+9	   22.4654	   22.6429	    5.9190	  -16.9116	
 -345.0000	4.938E-12	3.174E+9	   22.4680	   22.6426	    5.9146	  -16.9207	
 -350.0000	4.936E-12	3.384E+9	   22.4654	   22.6522	    5.9181	  -16.9069	
 -355.0000	4.936E-12	3.354E+9	   22.4680	   22.6457	    5.9184	  -16.9109	
 -360.0000	4.933E-12	3.333E+9	   22.4680	   22.6457	    5.9184	  -16.9109	
 -365.0000	4.938E-12	3.183E+9	   22.4680	   22.6464	    5.9206	  -16.9060	
 -370.0000	4.935E-12	3.220E+9	   22.4680	   22.6464	    5.9168	  -16.9136	
 -375.0000	4.934E-12	3.489E+9	   22.4680	   22.6454	    5.9285	  -16.8908	
 -380.0000	4.936E-12	3.423E+9	   22.4680	   22.6465	    5.9099	  -16.9274	
 -385.0000	4.936E-12	3.344E+9	   22.4680	   22.6435	    5.9194	  -16.9106	
 -390.0000	4.933E-12	3.511E+9	   22.4654	   22.6476	    5.9102	  -16.9260	
 -395.0000	4.934E-12	3.472E+9	   22.4680	   22.6439	    5.9184	  -16.9122	
 -400.0000	4.935E-12	3.591E+9	   22.4680	   22.6439	    5.9187	  -16.9116	
 -410.0000	4.938E-12	3.275E+9	   22.4680	   22.6477	    5.9269	  -16.8924	
 -420.0000	4.939E-12	3.503E+9	   22.4654	   22.6442	    5.9203	  -16.9081	
 -430.0000	4.937E-12	3.466E+9	   22.4680	   22.6479	    5.9159	  -16.9144	
 -440.0000	4.932E-12	3.351E+9	   22.4680	   22.6478	    5.9073	  -16.9316	
 -450.0000	4.933E-12	3.476E+9	   22.4654	   22.6421	    5.9295	  -16.8913	
 -460.0000	4.932E-12	3.576E+9	   22.4680	   22.6425	    5.9175	  -16.9151	
 -470.0000	4.936E-12	3.210E+9	   22.4654	   22.6499	    5.9175	  -16.9098	
 -480.0000	4.931E-12	3.424E+9	   22.4680	   22.6433	    5.9124	  -16.9247	
 -490.0000	4.935E-12	3.377E+9	   22.4654	   22.6452	    5.9269	  -16.8941	
 -500.0000	4.933E-12	3.342E+9	   22.4654	   22.6396	    5.9206	  -16.9108	
 -510.0000	4.933E-12	3.392E+9	   22.4680	   22.6440	    5.9127	  -16.9235	
 -520.0000	4.931E-12	3.443E+9	   22.4680	   22.6486	    5.9200	  -16.9057	
 -530.0000	4.930E-12	3.514E+9	   22.4654	   22.6449	    5.9099	  -16.9286	
 -540.0000	4.933E-12	3.372E+9	   22.4680	   22.6408	    5.9317	  -16.8878	
 -550.0000	4.933E-12	3.220E+9	   22.4680	   22.6424	    5.9206	  -16.9089	
 -560.0000	4.933E-12	3.422E+9	   22.4680	   22.6370	    5.9146	  -16.9248	
 -570.0000	4.929E-12	3.450E+9	   22.4680	   22.6459	    5.9124	  -16.9228	
 -580.0000	4.929E-12	3.329E+9	   22.4680	   22.6383	    5.9096	  -16.9340	
 -590.0000	4.932E-12	3.251E+9	   22.4654	   22.6435	    5.9241	  -16.9010	
 -600.0000	4.932E-12	3.547E+9	   22.4680	   22.6401	    5.9295	  -16.8927	
