GCD Test
Bias: 5000.000000
IV_38873_003_2-S_HM_XX_DIODE
Date/Time: 3/9/2022 4:47:33 PM
Sensor Name: 
Type: P
Annealing Status: Unirradiated
Environment: 20C
Tester: Andrew Kent

Time Delay per Ramp Step (s): 0.500

CV Time Delay per Measurement (s) :0.500

AC Voltage (V): 0.500

Current Number of measurements per voltage: 1.000

IV Time Delay per Measurement (s) :0.000


BiasVoltage	Total Current_Avg	Total Current_0	Bias Current_Avg	Bias Current_0	Temperature	Air_Temp	Humidity	Dewpoint	
  -10.0000	-7.1000E-11	-7.1000E-11	-1.793887E-10	-1.793887E-10	   20.0039	   21.7273	   19.2834	   -2.5651	
  -20.0000	-1.4600E-10	-1.4600E-10	-1.902697E-10	-1.902697E-10	   20.0039	   21.7246	   19.2834	   -2.6938	
  -30.0000	-1.0300E-10	-1.0300E-10	-2.023708E-10	-2.023708E-10	   20.0013	   21.7257	   19.1565	   -2.7816	
  -40.0000	-2.0700E-10	-2.0700E-10	-2.150501E-10	-2.150501E-10	   19.9987	   21.7200	   19.0481	   -2.8626	
  -50.0000	-2.7300E-10	-2.7300E-10	-2.301638E-10	-2.301638E-10	   19.9987	   21.7224	   18.9915	   -2.9005	
  -60.0000	-3.3700E-10	-3.3700E-10	-2.471947E-10	-2.471947E-10	   19.9961	   21.7209	   18.9156	   -2.9555	
  -70.0000	-4.3200E-10	-4.3200E-10	-2.577153E-10	-2.577153E-10	   19.9936	   21.7172	   18.8659	   -2.9938	
  -80.0000	-4.7600E-10	-4.7600E-10	-2.633182E-10	-2.633182E-10	   19.9936	   21.7187	   18.8302	   -3.0180	
  -90.0000	-3.7600E-10	-3.7600E-10	-2.750658E-10	-2.750658E-10	   19.9961	   21.7236	   18.7875	   -3.0444	
 -100.0000	-4.5400E-10	-4.5400E-10	-2.804375E-10	-2.804375E-10	   19.9961	   21.7236	   18.7359	   -3.0444	
 -110.0000	-4.5800E-10	-4.5800E-10	-2.843524E-10	-2.843524E-10	   19.9987	   21.7211	   18.7258	   -3.0833	
 -120.0000	-4.7100E-10	-4.7100E-10	-2.879639E-10	-2.879639E-10	   20.0013	   21.7243	   18.6898	   -3.0879	
 -130.0000	-5.0900E-10	-5.0900E-10	-2.919452E-10	-2.919452E-10	   20.0013	   21.7238	   18.6834	   -3.1142	
 -140.0000	-6.0300E-10	-6.0300E-10	-2.972396E-10	-2.972396E-10	   20.0064	   21.7237	   18.6581	   -3.1188	
 -150.0000	-5.8800E-10	-5.8800E-10	-3.042846E-10	-3.042846E-10	   20.0064	   21.7218	   18.6521	   -3.1385	
 -160.0000	-6.6500E-10	-6.6500E-10	-3.157297E-10	-3.157297E-10	   20.0064	   21.7184	   18.6521	   -3.1455	
 -170.0000	-5.7400E-10	-5.7400E-10	-3.314104E-10	-3.314104E-10	   20.0064	   21.7228	   18.6436	   -3.1481	
 -180.0000	-6.2600E-10	-6.2600E-10	-3.507884E-10	-3.507884E-10	   20.0039	   21.7200	   18.6328	   -3.1581	
 -190.0000	-6.4500E-10	-6.4500E-10	-3.684959E-10	-3.684959E-10	   20.0039	   21.7199	   18.6202	   -3.1673	
 -200.0000	-6.8000E-10	-6.8000E-10	-3.821563E-10	-3.821563E-10	   20.0013	   21.7166	   18.6173	   -3.1721	
 -210.0000	-7.5500E-10	-7.5500E-10	-3.919621E-10	-3.919621E-10	   19.9987	   21.7161	   18.6116	   -3.1765	
 -220.0000	-7.2700E-10	-7.2700E-10	-4.007644E-10	-4.007644E-10	   19.9987	   21.7117	   18.6085	   -3.1824	
 -230.0000	-8.8200E-10	-8.8200E-10	-4.079369E-10	-4.079369E-10	   19.9961	   21.7125	   18.6072	   -3.1826	
 -240.0000	-7.7900E-10	-7.7900E-10	-4.145814E-10	-4.145814E-10	   19.9961	   21.7128	   18.5917	   -3.1936	
 -250.0000	-8.3700E-10	-8.3700E-10	-4.204971E-10	-4.204971E-10	   19.9961	   21.7130	   18.5942	   -3.1916	
 -260.0000	-8.4900E-10	-8.4900E-10	-4.257613E-10	-4.257613E-10	   19.9936	   21.7169	   18.5886	   -3.1925	
 -270.0000	-8.7100E-10	-8.7100E-10	-4.304518E-10	-4.304518E-10	   19.9961	   21.7119	   18.5797	   -3.2029	
 -280.0000	-8.8400E-10	-8.8400E-10	-4.344206E-10	-4.344206E-10	   19.9961	   21.7138	   18.5803	   -3.2009	
 -290.0000	-8.9900E-10	-8.9900E-10	-4.382353E-10	-4.382353E-10	   19.9987	   21.7099	   18.5819	   -3.2030	
 -300.0000	-9.2900E-10	-9.2900E-10	-4.421539E-10	-4.421539E-10	   20.0013	   21.7099	   18.5743	   -3.2030	
 -310.0000	-1.0700E-9	-1.0700E-9	-4.457839E-10	-4.457839E-10	   20.0039	   21.7115	   18.5765	   -3.2072	
 -320.0000	-9.0100E-10	-9.0100E-10	-4.491956E-10	-4.491956E-10	   20.0064	   21.7103	   18.5784	   -3.2065	
 -330.0000	-9.6900E-10	-9.6900E-10	-4.521244E-10	-4.521244E-10	   20.0064	   21.7125	   18.5886	   -3.2034	
 -340.0000	-9.9500E-10	-9.9500E-10	-4.547474E-10	-4.547474E-10	   20.0064	   21.7178	   18.5886	   -3.1917	
 -350.0000	-9.9200E-10	-9.9200E-10	-4.582200E-10	-4.582200E-10	   20.0039	   21.7141	   18.5781	   -3.2023	
 -360.0000	-1.0120E-9	-1.0120E-9	-4.608641E-10	-4.608641E-10	   20.0039	   21.7107	   18.5813	   -3.2028	
 -370.0000	-1.0200E-9	-1.0200E-9	-4.631885E-10	-4.631885E-10	   20.0013	   21.7117	   18.5838	   -3.2002	
 -380.0000	-1.0400E-9	-1.0400E-9	-4.664008E-10	-4.664008E-10	   20.0013	   21.7090	   18.5756	   -3.2083	
 -390.0000	-1.0390E-9	-1.0390E-9	-4.692479E-10	-4.692479E-10	   19.9987	   21.7083	   18.5870	   -3.2006	
 -400.0000	-1.0770E-9	-1.0770E-9	-4.716065E-10	-4.716065E-10	   19.9961	   21.7104	   18.5825	   -3.2021	
 -420.0000	-1.1870E-9	-1.1870E-9	-4.762645E-10	-4.762645E-10	   19.9961	   21.7126	   18.5813	   -3.2013	
 -440.0000	-1.2900E-9	-1.2900E-9	-4.813580E-10	-4.813580E-10	   19.9936	   21.7071	   18.5822	   -3.2051	
 -460.0000	-1.3550E-9	-1.3550E-9	-4.850191E-10	-4.850191E-10	   19.9936	   21.7086	   18.5901	   -3.1982	
 -480.0000	-1.4990E-9	-1.4990E-9	-4.898539E-10	-4.898539E-10	   19.9961	   21.7065	   18.5857	   -3.2030	
 -500.0000	-1.4670E-9	-1.4670E-9	-4.939146E-10	-4.939146E-10	   19.9961	   21.7065	   18.5968	   -3.2030	
 -520.0000	-1.5740E-9	-1.5740E-9	-4.977677E-10	-4.977677E-10	   19.9961	   21.7109	   18.5968	   -3.1915	
 -540.0000	-1.5970E-9	-1.5970E-9	-5.017199E-10	-5.017199E-10	   19.9987	   21.7074	   18.6056	   -3.1879	
 -560.0000	-1.6850E-9	-1.6850E-9	-5.055086E-10	-5.055086E-10	   20.0013	   21.7092	   18.6053	   -3.1867	
 -580.0000	-1.6860E-9	-1.6860E-9	-5.089615E-10	-5.089615E-10	   20.0039	   21.7065	   18.5977	   -3.1944	
 -600.0000	-1.7210E-9	-1.7210E-9	-5.134078E-10	-5.134078E-10	   20.0039	   21.7065	   18.5977	   -3.1944	
 -620.0000	-1.8150E-9	-1.8150E-9	-5.164090E-10	-5.164090E-10	   20.0064	   21.7058	   18.6015	   -3.1922	
 -640.0000	-1.8560E-9	-1.8560E-9	-5.195236E-10	-5.195236E-10	   20.0064	   21.6991	   18.6028	   -3.1968	
 -660.0000	-1.9810E-9	-1.9810E-9	-5.235505E-10	-5.235505E-10	   20.0064	   21.7026	   18.6110	   -3.1880	
 -680.0000	-1.8790E-9	-1.8790E-9	-5.268477E-10	-5.268477E-10	   20.0064	   21.7026	   18.6110	   -3.1880	
 -700.0000	-1.9200E-9	-1.9200E-9	-5.296321E-10	-5.296321E-10	   20.0039	   21.7065	   18.6078	   -3.1872	
 -720.0000	-1.9610E-9	-1.9610E-9	-5.326788E-10	-5.326788E-10	   20.0013	   21.7029	   18.6116	   -3.1873	
 -740.0000	-2.0560E-9	-2.0560E-9	-5.362973E-10	-5.362973E-10	   20.0013	   21.6982	   18.6354	   -3.1742	
 -760.0000	-2.0240E-9	-2.0240E-9	-5.393665E-10	-5.393665E-10	   19.9987	   21.6982	   18.6256	   -3.1742	
 -780.0000	-2.0370E-9	-2.0370E-9	-5.431456E-10	-5.431456E-10	   19.9987	   21.6982	   18.6256	   -3.1812	
 -800.0000	-2.1230E-9	-2.1230E-9	-5.464174E-10	-5.464174E-10	   19.9961	   21.7009	   18.6312	   -3.1748	
 -820.0000	-2.1780E-9	-2.1780E-9	-5.499841E-10	-5.499841E-10	   19.9961	   21.7009	   18.6436	   -3.1748	
 -840.0000	-2.1350E-9	-2.1350E-9	-5.536813E-10	-5.536813E-10	   19.9961	   21.7046	   18.6436	   -3.1630	
 -860.0000	-2.2000E-9	-2.2000E-9	-5.582976E-10	-5.582976E-10	   19.9936	   21.7017	   18.6360	   -3.1708	
 -880.0000	-2.3600E-9	-2.3600E-9	-5.627649E-10	-5.627649E-10	   19.9961	   21.6969	   18.6515	   -3.1636	
 -900.0000	-2.2370E-9	-2.2370E-9	-5.671527E-10	-5.671527E-10	   19.9936	   21.6969	   18.6467	   -3.1636	
 -920.0000	-2.2560E-9	-2.2560E-9	-5.715294E-10	-5.715294E-10	   19.9936	   21.6969	   18.6467	   -3.1670	
 -940.0000	-2.2630E-9	-2.2630E-9	-5.766538E-10	-5.766538E-10	   19.9987	   21.7003	   18.6436	   -3.1665	
 -960.0000	-2.3650E-9	-2.3650E-9	-5.823361E-10	-5.823361E-10	   20.0013	   21.7003	   18.6540	   -3.1665	
 -980.0000	-2.4000E-9	-2.4000E-9	-5.881922E-10	-5.881922E-10	   20.0013	   21.7008	   18.6540	   -3.1586	
-1000.0000	-2.3670E-9	-2.3670E-9	-5.946519E-10	-5.946519E-10	   20.0013	   21.6952	   18.6581	   -3.1602	
