GCD Test
Bias: 5000.000000
CV_34340_040_PSS_HM_XX_DIODEFULL
Date/Time: 8/19/2021 12:00:45 PM
Sensor Name: 34340_040_PSS_HM_XX_DIODEFULL
Type: P
Annealing Status: 80 min
Environment: -20C
Tester: Eric Spencer

Time Delay per Ramp Step (s): 1.000

CV Time Delay per Measurement (s) :0.500

AC Voltage (V): 0.500

Current Number of measurements per voltage: 4.000

IV Time Delay per Measurement (s) :0.000


BiasVoltage	LCR_Cp_freq1000.0	LCR_Cp_freq10000.0	LCR_Rp_freq1000.0	LCR_Rp_freq10000.0	Temperature	Air_Temp	Humidity	Dewpoint	
  -10.0000	4.848E-11	1.325E-11	2.137E+6	1.275E+6	  -19.9779	    9.7981	    4.3953	  -29.4292	
  -20.0000	4.620E-11	1.335E-11	2.872E+6	1.449E+6	  -19.9804	    9.7041	    4.3934	  -29.5004	
  -30.0000	4.296E-11	1.346E-11	3.506E+6	1.581E+6	  -20.0084	    9.6989	    4.3801	  -29.5362	
  -40.0000	4.018E-11	1.355E-11	4.124E+6	1.711E+6	  -20.0008	    9.6507	    4.3852	  -29.5581	
  -50.0000	3.802E-11	1.360E-11	4.727E+6	1.819E+6	  -20.0008	    9.7229	    4.3880	  -29.5000	
  -60.0000	3.624E-11	1.364E-11	5.310E+6	1.917E+6	  -19.9982	    9.7253	    4.4067	  -29.4535	
  -70.0000	3.478E-11	1.367E-11	5.848E+6	2.002E+6	  -19.9957	    9.6569	    4.4358	  -29.4325	
  -80.0000	3.363E-11	1.369E-11	6.329E+6	2.094E+6	  -20.0008	    9.6569	    4.4671	  -29.3581	
  -90.0000	3.238E-11	1.370E-11	6.832E+6	2.180E+6	  -19.9931	    9.6458	    4.5006	  -29.2869	
 -100.0000	3.146E-11	1.368E-11	7.272E+6	2.280E+6	  -19.9982	    9.6233	    4.5117	  -29.2769	
 -110.0000	3.056E-11	1.368E-11	7.713E+6	2.356E+6	  -19.9957	    9.6930	    4.5158	  -29.2176	
 -120.0000	2.981E-11	1.368E-11	8.142E+6	2.438E+6	  -20.0033	    9.6114	    4.5244	  -29.2556	
 -130.0000	2.909E-11	1.369E-11	8.546E+6	2.499E+6	  -20.0160	    9.5041	    4.5212	  -29.3394	
 -140.0000	2.851E-11	1.367E-11	8.914E+6	2.586E+6	  -20.0135	    9.6172	    4.5225	  -29.2560	
 -150.0000	2.779E-11	1.364E-11	9.344E+6	2.672E+6	  -19.9982	    9.5491	    4.5259	  -29.2963	
 -160.0000	2.730E-11	1.363E-11	9.686E+6	2.744E+6	  -20.0008	    9.5058	    4.5019	  -29.3835	
 -170.0000	2.676E-11	1.360E-11	1.007E+7	2.830E+6	  -19.9906	    9.4414	    4.5120	  -29.4055	
 -180.0000	2.626E-11	1.358E-11	1.045E+7	2.917E+6	  -20.0033	    9.4715	    4.5032	  -29.4049	
 -190.0000	2.578E-11	1.354E-11	1.082E+7	3.013E+6	  -19.9906	    9.5336	    4.5051	  -29.3562	
 -200.0000	2.525E-11	1.350E-11	1.126E+7	3.125E+6	  -19.9931	    9.5191	    4.5111	  -29.3525	
 -210.0000	2.481E-11	1.348E-11	1.166E+7	3.206E+6	  -20.0211	    9.5226	    4.5269	  -29.3129	
 -220.0000	2.433E-11	1.345E-11	1.212E+7	3.319E+6	  -20.0033	    9.5510	    4.5351	  -29.2735	
 -230.0000	2.388E-11	1.342E-11	1.259E+7	3.439E+6	  -20.0109	    9.5607	    4.5262	  -29.2873	
 -240.0000	2.347E-11	1.339E-11	1.306E+7	3.542E+6	  -20.0287	    9.5607	    4.5247	  -29.2910	
 -250.0000	2.308E-11	1.337E-11	1.355E+7	3.662E+6	  -20.0186	    9.5030	    4.5117	  -29.3624	
 -260.0000	2.260E-11	1.334E-11	1.418E+7	3.796E+6	  -20.0033	    9.5762	    4.4877	  -29.3669	
 -270.0000	2.221E-11	1.332E-11	1.476E+7	3.942E+6	  -20.0160	    9.5316	    4.4801	  -29.4165	
 -280.0000	2.183E-11	1.330E-11	1.537E+7	4.072E+6	  -20.0262	    9.4080	    4.4703	  -29.5276	
 -290.0000	2.149E-11	1.329E-11	1.600E+7	4.206E+6	  -20.0109	    9.5379	    4.4374	  -29.5132	
 -300.0000	2.107E-11	1.327E-11	1.676E+7	4.374E+6	  -20.0186	    9.4445	    4.4336	  -29.5887	
 -310.0000	2.071E-11	1.326E-11	1.751E+7	4.532E+6	  -20.0211	    9.4532	    4.4282	  -29.5952	
 -320.0000	2.034E-11	1.324E-11	1.832E+7	4.702E+6	  -20.0186	    9.4486	    4.4130	  -29.6348	
 -330.0000	1.998E-11	1.323E-11	1.917E+7	4.879E+6	  -20.0135	    9.4743	    4.3982	  -29.6521	
 -340.0000	1.961E-11	1.322E-11	2.011E+7	5.035E+6	  -20.0160	    9.4391	    4.3915	  -29.6931	
 -350.0000	1.927E-11	1.321E-11	2.104E+7	5.207E+6	  -20.0186	    9.5077	    4.3830	  -29.6649	
 -360.0000	1.898E-11	1.321E-11	2.190E+7	5.381E+6	  -20.0033	    9.4343	    4.3710	  -29.7459	
 -370.0000	1.865E-11	1.321E-11	2.300E+7	5.544E+6	  -20.0008	    9.3930	    4.3697	  -29.7783	
 -380.0000	1.837E-11	1.320E-11	2.396E+7	5.709E+6	  -19.9906	    9.4249	    4.3912	  -29.7039	
 -390.0000	1.807E-11	1.320E-11	2.514E+7	5.892E+6	  -19.9855	    9.3963	    4.4114	  -29.6757	
 -400.0000	1.780E-11	1.320E-11	2.624E+7	6.040E+6	  -19.9931	    9.4526	    4.4222	  -29.6100	
 -410.0000	1.756E-11	1.319E-11	2.738E+7	6.226E+6	  -20.0033	    9.4108	    4.4557	  -29.5600	
 -420.0000	1.729E-11	1.318E-11	2.874E+7	6.415E+6	  -19.9982	    9.4214	    4.4662	  -29.5278	
 -430.0000	1.706E-11	1.318E-11	2.999E+7	6.554E+6	  -20.0033	    9.4519	    4.4788	  -29.4762	
 -440.0000	1.686E-11	1.318E-11	3.127E+7	6.725E+6	  -20.0084	    9.4570	    4.4880	  -29.4509	
 -450.0000	1.664E-11	1.317E-11	3.280E+7	6.890E+6	  -19.9982	    9.4204	    4.4911	  -29.4695	
 -460.0000	1.648E-11	1.318E-11	3.413E+7	7.024E+6	  -19.9830	    9.4456	    4.4908	  -29.4523	
 -470.0000	1.630E-11	1.317E-11	3.558E+7	7.182E+6	  -19.9906	    9.4085	    4.5095	  -29.4349	
 -480.0000	1.613E-11	1.317E-11	3.725E+7	7.316E+6	  -19.9880	    9.4341	    4.5228	  -29.3855	
 -490.0000	1.600E-11	1.317E-11	3.873E+7	7.451E+6	  -20.0008	    9.3803	    4.5300	  -29.4069	
 -500.0000	1.584E-11	1.316E-11	4.051E+7	7.600E+6	  -20.0084	    9.3778	    4.5380	  -29.3902	
 -510.0000	1.571E-11	1.317E-11	4.220E+7	7.710E+6	  -20.0008	    9.4466	    4.5190	  -29.3855	
 -520.0000	1.560E-11	1.316E-11	4.388E+7	7.849E+6	  -19.9957	    9.3553	    4.5079	  -29.4765	
 -530.0000	1.549E-11	1.316E-11	4.575E+7	7.960E+6	  -19.9931	    9.3442	    4.5035	  -29.4947	
 -540.0000	1.539E-11	1.316E-11	4.758E+7	8.063E+6	  -19.9906	    9.4478	    4.4775	  -29.4820	
 -550.0000	1.531E-11	1.316E-11	4.913E+7	8.178E+6	  -20.0109	    9.3926	    4.4658	  -29.5490	
 -560.0000	1.522E-11	1.316E-11	5.115E+7	8.260E+6	  -19.9982	    9.3495	    4.4560	  -29.6028	
 -570.0000	1.515E-11	1.316E-11	5.299E+7	8.352E+6	  -20.0109	    9.3429	    4.4238	  -29.6842	
 -580.0000	1.508E-11	1.315E-11	5.479E+7	8.449E+6	  -20.0186	    9.3649	    4.4213	  -29.6746	
 -590.0000	1.501E-11	1.315E-11	5.702E+7	8.522E+6	  -20.0109	    9.3028	    4.4187	  -29.7247	
 -600.0000	1.496E-11	1.315E-11	5.838E+7	8.606E+6	  -20.0186	    9.2907	    4.4178	  -29.7356	
 -610.0000	1.492E-11	1.315E-11	6.023E+7	8.659E+6	  -20.0084	    9.3413	    4.4320	  -29.6657	
 -620.0000	1.486E-11	1.315E-11	6.193E+7	8.733E+6	  -20.0109	    9.3137	    4.4314	  -29.6868	
 -630.0000	1.483E-11	1.315E-11	6.364E+7	8.777E+6	  -20.0084	    9.3077	    4.4295	  -29.6956	
 -640.0000	1.478E-11	1.315E-11	6.566E+7	8.849E+6	  -20.0084	    9.2718	    4.4326	  -29.7136	
 -650.0000	1.475E-11	1.315E-11	6.717E+7	8.889E+6	  -20.0033	    9.3535	    4.4228	  -29.6789	
 -660.0000	1.472E-11	1.316E-11	6.888E+7	8.928E+6	  -20.0109	    9.3131	    4.4383	  -29.6707	
 -670.0000	1.470E-11	1.316E-11	6.990E+7	8.956E+6	  -20.0008	    9.2996	    4.4447	  -29.6653	
 -680.0000	1.467E-11	1.315E-11	7.135E+7	9.009E+6	  -19.9982	    9.2822	    4.4380	  -29.6934	
 -690.0000	1.465E-11	1.315E-11	7.299E+7	9.050E+6	  -19.9982	    9.2822	    4.4437	  -29.6799	
 -700.0000	1.462E-11	1.315E-11	7.436E+7	9.084E+6	  -20.0033	    9.2881	    4.4415	  -29.6809	
 -710.0000	1.461E-11	1.315E-11	7.569E+7	9.113E+6	  -19.9906	    9.2718	    4.4687	  -29.6281	
 -720.0000	1.459E-11	1.315E-11	7.702E+7	9.144E+6	  -19.9982	    9.2529	    4.4624	  -29.6565	
 -730.0000	1.457E-11	1.315E-11	7.833E+7	9.173E+6	  -20.0008	    9.3283	    4.4639	  -29.5991	
 -740.0000	1.447E-11	1.314E-11	7.863E+7	9.218E+6	  -19.9982	    9.2925	    4.4646	  -29.6231	
 -750.0000	1.446E-11	1.314E-11	7.968E+7	9.225E+6	  -19.9880	    9.3046	    4.4516	  -29.6452	
 -760.0000	1.445E-11	1.315E-11	8.070E+7	9.235E+6	  -19.9931	    9.2999	    4.4535	  -29.6440	
 -770.0000	1.444E-11	1.315E-11	8.128E+7	9.252E+6	  -19.9931	    9.2973	    4.4437	  -29.6692	
 -780.0000	1.444E-11	1.315E-11	8.188E+7	9.265E+6	  -20.0008	    9.2728	    4.4396	  -29.6963	
 -790.0000	1.442E-11	1.314E-11	8.351E+7	9.302E+6	  -19.9982	    9.2728	    4.4358	  -29.7053	
 -800.0000	1.441E-11	1.315E-11	8.427E+7	9.305E+6	  -19.9906	    9.1540	    4.4127	  -29.8447	
 -810.0000	1.440E-11	1.315E-11	8.494E+7	9.313E+6	  -19.9830	    9.1052	    4.4020	  -29.9051	
 -820.0000	1.439E-11	1.315E-11	8.569E+7	9.320E+6	  -19.9880	    9.1809	    4.3903	  -29.8794	
 -830.0000	1.438E-11	1.314E-11	8.651E+7	9.343E+6	  -19.9906	    9.1064	    4.3893	  -29.9345	
 -840.0000	1.438E-11	1.315E-11	8.664E+7	9.332E+6	  -19.9880	    9.1505	    4.3773	  -29.9320	
 -850.0000	1.437E-11	1.315E-11	8.721E+7	9.327E+6	  -20.0033	    9.1627	    4.3716	  -29.9371	
 -860.0000	1.438E-11	1.315E-11	8.755E+7	9.343E+6	  -20.0033	    9.1861	    4.3672	  -29.9312	
 -870.0000	1.437E-11	1.315E-11	8.772E+7	9.355E+6	  -20.0008	    9.2113	    4.3463	  -29.9637	
 -880.0000	1.436E-11	1.315E-11	8.840E+7	9.348E+6	  -20.0135	    9.1984	    4.3387	  -29.9912	
 -890.0000	1.436E-11	1.315E-11	8.880E+7	9.344E+6	  -20.0033	    9.1984	    4.3359	  -29.9981	
 -900.0000	1.436E-11	1.315E-11	8.918E+7	9.365E+6	  -20.0059	    9.2525	    4.3194	  -29.9998	
 -910.0000	1.435E-11	1.315E-11	8.993E+7	9.373E+6	  -20.0008	    9.1598	    4.3188	  -30.0669	
 -920.0000	1.435E-11	1.315E-11	8.979E+7	9.356E+6	  -19.9957	    9.1925	    4.3172	  -30.0477	
 -930.0000	1.435E-11	1.316E-11	8.966E+7	9.347E+6	  -20.0008	    9.1881	    4.3112	  -30.0654	
 -940.0000	1.435E-11	1.315E-11	9.020E+7	9.364E+6	  -20.0135	    9.2601	    4.3023	  -30.0360	
 -950.0000	1.435E-11	1.315E-11	9.014E+7	9.355E+6	  -20.0135	    9.1372	    4.3052	  -30.1161	
 -960.0000	1.435E-11	1.316E-11	8.960E+7	9.337E+6	  -20.0033	    9.0527	    4.3074	  -30.1706	
 -970.0000	1.434E-11	1.316E-11	8.959E+7	9.337E+6	  -20.0008	    9.1306	    4.2913	  -30.1548	
 -980.0000	1.434E-11	1.315E-11	9.036E+7	9.350E+6	  -20.0084	    9.1832	    4.2938	  -30.1114	
 -990.0000	1.434E-11	1.315E-11	9.025E+7	9.342E+6	  -20.0109	    9.1598	    4.2812	  -30.1589	
-1000.0000	1.435E-11	1.315E-11	8.983E+7	9.342E+6	  -19.9982	    9.0929	    4.2615	  -30.2545	
