GCD Test
Bias: 5000.000000
IV_34340_040_PSS_HM_XX_DIODEHALFPSTOP_Irradiated
Date/Time: 8/19/2021 2:36:52 PM
Sensor Name: 34340_040_PSS_HM_XX_DIODEHALFPSTOP
Type: P
Annealing Status: Annealed at 60C for 80 min
Environment: -20C
Tester: Andrew Kent

Time Delay per Ramp Step (s): 1.000

CV Time Delay per Measurement (s) :0.500

AC Voltage (V): 0.500

Current Number of measurements per voltage: 4.000

IV Time Delay per Measurement (s) :0.000


BiasVoltage	Total Current_Avg	Total Current_0	Total Current_1	Total Current_2	Total Current_3	Bias Current_Avg	Bias Current_0	Bias Current_1	Bias Current_2	Bias Current_3	Temperature	Air_Temp	Humidity	Dewpoint	
  -10.0000	-3.5597E-8	-3.6070E-8	-3.5800E-8	-3.5620E-8	-3.4900E-8	-3.417285E-8	-3.423512E-8	-3.420928E-8	-3.417272E-8	-3.407429E-8	  -20.6671	    8.0653	    6.7517	  -26.0753	
  -20.0000	-7.0920E-8	-7.1390E-8	-7.1140E-8	-7.0680E-8	-7.0470E-8	-7.076795E-8	-7.094454E-8	-7.097159E-8	-7.058574E-8	-7.056991E-8	  -20.7917	    8.2046	    6.6657	  -26.1118	
  -30.0000	-1.0683E-7	-1.0640E-7	-1.0630E-7	-1.0730E-7	-1.0730E-7	-1.052927E-7	-1.055692E-7	-1.053763E-7	-1.051904E-7	-1.050347E-7	  -20.8451	    8.0920	    6.6129	  -26.2821	
  -40.0000	-1.3998E-7	-1.4000E-7	-1.3970E-7	-1.4030E-7	-1.3990E-7	-1.382158E-7	-1.386308E-7	-1.383639E-7	-1.380701E-7	-1.377982E-7	  -20.8858	    8.1457	    6.5500	  -26.3464	
  -50.0000	-1.7198E-7	-1.7360E-7	-1.7180E-7	-1.7140E-7	-1.7110E-7	-1.694684E-7	-1.699247E-7	-1.696592E-7	-1.692592E-7	-1.690304E-7	  -20.9214	    8.0086	    6.5225	  -26.4937	
  -60.0000	-2.0158E-7	-2.0210E-7	-2.0110E-7	-2.0200E-7	-2.0110E-7	-1.988539E-7	-1.993126E-7	-1.990476E-7	-1.987187E-7	-1.983368E-7	  -20.9418	    8.2859	    6.4614	  -26.3909	
  -70.0000	-2.2930E-7	-2.3060E-7	-2.3050E-7	-2.2890E-7	-2.2720E-7	-2.256704E-7	-2.261162E-7	-2.257356E-7	-2.254747E-7	-2.253551E-7	  -20.9367	    8.1439	    6.4336	  -26.5428	
  -80.0000	-2.5430E-7	-2.5570E-7	-2.5400E-7	-2.5400E-7	-2.5350E-7	-2.513246E-7	-2.519709E-7	-2.515580E-7	-2.511280E-7	-2.506414E-7	  -20.8935	    8.2918	    6.4023	  -26.4865	
  -90.0000	-2.7810E-7	-2.7960E-7	-2.7830E-7	-2.7790E-7	-2.7660E-7	-2.752180E-7	-2.755335E-7	-2.752867E-7	-2.751848E-7	-2.748669E-7	  -20.8985	    8.2918	    6.3868	  -26.5129	
 -100.0000	-3.0098E-7	-3.0170E-7	-3.0250E-7	-3.0130E-7	-2.9840E-7	-2.978463E-7	-2.982469E-7	-2.981888E-7	-2.976113E-7	-2.973383E-7	  -20.8604	    8.1268	    6.3855	  -26.6368	
 -110.0000	-3.2330E-7	-3.2550E-7	-3.2420E-7	-3.2210E-7	-3.2140E-7	-3.202497E-7	-3.207918E-7	-3.203374E-7	-3.202007E-7	-3.196687E-7	  -20.8146	    8.0978	    6.3763	  -26.6739	
 -120.0000	-3.4535E-7	-3.4590E-7	-3.4530E-7	-3.4570E-7	-3.4450E-7	-3.424160E-7	-3.434515E-7	-3.426457E-7	-3.419677E-7	-3.415989E-7	  -20.7180	    8.0249	    6.3264	  -26.8130	
 -130.0000	-3.6683E-7	-3.6740E-7	-3.6620E-7	-3.6710E-7	-3.6660E-7	-3.646445E-7	-3.645166E-7	-3.648512E-7	-3.643452E-7	-3.648651E-7	  -20.6900	    8.0249	    6.3112	  -26.8390	
 -140.0000	-3.9308E-7	-3.9360E-7	-3.9290E-7	-3.9350E-7	-3.9230E-7	-3.908538E-7	-3.910895E-7	-3.907362E-7	-3.909613E-7	-3.906281E-7	  -20.6086	    8.1400	    6.2976	  -26.7775	
 -150.0000	-4.1518E-7	-4.1510E-7	-4.1650E-7	-4.1600E-7	-4.1310E-7	-4.132391E-7	-4.132884E-7	-4.139893E-7	-4.131328E-7	-4.125460E-7	  -20.4916	    7.8858	    6.2666	  -27.0184	
 -160.0000	-4.3935E-7	-4.3900E-7	-4.4050E-7	-4.4000E-7	-4.3790E-7	-4.378943E-7	-4.383510E-7	-4.382811E-7	-4.376140E-7	-4.373310E-7	  -20.4357	    7.9599	    6.2416	  -27.0070	
 -170.0000	-4.6295E-7	-4.6410E-7	-4.6280E-7	-4.6270E-7	-4.6220E-7	-4.604601E-7	-4.615063E-7	-4.607771E-7	-4.599696E-7	-4.595872E-7	  -20.3569	    8.0490	    6.2122	  -26.9925	
 -180.0000	-4.8600E-7	-4.8800E-7	-4.8730E-7	-4.8500E-7	-4.8370E-7	-4.836494E-7	-4.835337E-7	-4.837197E-7	-4.839937E-7	-4.833505E-7	  -20.2653	    7.9436	    6.1825	  -27.1219	
 -190.0000	-5.1225E-7	-5.1450E-7	-5.1130E-7	-5.1080E-7	-5.1240E-7	-5.108236E-7	-5.111374E-7	-5.117827E-7	-5.104458E-7	-5.099287E-7	  -20.1330	    7.9089	    6.1398	  -27.2224	
 -200.0000	-5.3727E-7	-5.3540E-7	-5.3650E-7	-5.3920E-7	-5.3800E-7	-5.375531E-7	-5.384428E-7	-5.379328E-7	-5.372150E-7	-5.366218E-7	  -20.0949	    7.9089	    6.1338	  -27.2329	
 -210.0000	-5.6248E-7	-5.6360E-7	-5.6170E-7	-5.6160E-7	-5.6300E-7	-5.606582E-7	-5.601411E-7	-5.606428E-7	-5.608424E-7	-5.610065E-7	  -19.9753	    8.0903	    6.1110	  -27.1397	
 -220.0000	-5.8450E-7	-5.8480E-7	-5.8450E-7	-5.8500E-7	-5.8370E-7	-5.828716E-7	-5.833332E-7	-5.823233E-7	-5.837975E-7	-5.820324E-7	  -19.9448	    7.8856	    6.0892	  -27.3288	
 -230.0000	-6.0708E-7	-6.0630E-7	-6.0830E-7	-6.0780E-7	-6.0590E-7	-6.061758E-7	-6.062968E-7	-6.064472E-7	-6.056442E-7	-6.063148E-7	  -19.8685	    7.9330	    6.0541	  -27.3563	
 -240.0000	-6.3225E-7	-6.3300E-7	-6.3300E-7	-6.3090E-7	-6.3210E-7	-6.323316E-7	-6.325453E-7	-6.326750E-7	-6.319123E-7	-6.321937E-7	  -19.8125	    7.9859	    6.0218	  -27.3751	
 -250.0000	-6.5820E-7	-6.5930E-7	-6.5820E-7	-6.5740E-7	-6.5790E-7	-6.567044E-7	-6.567739E-7	-6.561961E-7	-6.574315E-7	-6.564163E-7	  -19.7464	    7.9415	    6.0133	  -27.4230	
 -260.0000	-6.8072E-7	-6.8220E-7	-6.8190E-7	-6.7960E-7	-6.7920E-7	-6.794708E-7	-6.795509E-7	-6.796691E-7	-6.800566E-7	-6.786067E-7	  -19.7006	    8.0394	    5.9851	  -27.4017	
 -270.0000	-7.1118E-7	-7.1260E-7	-7.1240E-7	-7.1080E-7	-7.0890E-7	-7.096132E-7	-7.108217E-7	-7.085746E-7	-7.091533E-7	-7.099032E-7	  -19.6548	    7.9597	    5.9763	  -27.4761	
 -280.0000	-7.3877E-7	-7.3880E-7	-7.3920E-7	-7.3840E-7	-7.3870E-7	-7.377928E-7	-7.373577E-7	-7.381278E-7	-7.372147E-7	-7.384711E-7	  -19.6319	    7.8528	    5.9608	  -27.5825	
 -290.0000	-7.6302E-7	-7.6340E-7	-7.6370E-7	-7.6310E-7	-7.6190E-7	-7.608508E-7	-7.608776E-7	-7.609806E-7	-7.598586E-7	-7.616866E-7	  -19.6243	    7.9867	    5.9462	  -27.5106	
 -300.0000	-7.9063E-7	-7.8950E-7	-7.9130E-7	-7.9120E-7	-7.9050E-7	-7.900260E-7	-7.902009E-7	-7.899622E-7	-7.900732E-7	-7.898679E-7	  -19.6167	    7.8935	    5.9307	  -27.6070	
 -310.0000	-8.1602E-7	-8.1640E-7	-8.1600E-7	-8.1590E-7	-8.1580E-7	-8.144056E-7	-8.148280E-7	-8.143303E-7	-8.142302E-7	-8.142341E-7	  -19.6192	    7.8844	    5.9266	  -27.6211	
 -320.0000	-8.3930E-7	-8.3980E-7	-8.3900E-7	-8.3810E-7	-8.4030E-7	-8.399623E-7	-8.392672E-7	-8.397487E-7	-8.395983E-7	-8.412352E-7	  -19.6472	    7.8882	    5.9020	  -27.6632	
 -330.0000	-8.6488E-7	-8.6460E-7	-8.6450E-7	-8.6540E-7	-8.6500E-7	-8.648739E-7	-8.645753E-7	-8.657787E-7	-8.651196E-7	-8.640219E-7	  -19.6574	    7.8882	    5.8814	  -27.7007	
 -340.0000	-8.8947E-7	-8.8860E-7	-8.8970E-7	-8.8860E-7	-8.9100E-7	-8.877722E-7	-8.874952E-7	-8.863518E-7	-8.902343E-7	-8.870076E-7	  -19.6701	    7.6414	    5.8672	  -27.9075	
 -350.0000	-9.1208E-7	-9.1160E-7	-9.1110E-7	-9.1310E-7	-9.1250E-7	-9.093824E-7	-9.077041E-7	-9.085745E-7	-9.093252E-7	-9.119258E-7	  -19.6981	    7.9698	    5.8561	  -27.6873	
 -360.0000	-9.3605E-7	-9.3750E-7	-9.3470E-7	-9.3440E-7	-9.3760E-7	-9.362911E-7	-9.364421E-7	-9.364468E-7	-9.375057E-7	-9.347698E-7	  -19.7311	    7.9836	    5.8311	  -27.7232	
 -370.0000	-9.5925E-7	-9.5850E-7	-9.6170E-7	-9.6030E-7	-9.5650E-7	-9.550498E-7	-9.532003E-7	-9.570206E-7	-9.559429E-7	-9.540353E-7	  -19.7693	    8.0078	    5.8061	  -27.7516	
 -380.0000	-9.7705E-7	-9.7870E-7	-9.7590E-7	-9.7600E-7	-9.7760E-7	-9.750444E-7	-9.745418E-7	-9.739389E-7	-9.765727E-7	-9.751244E-7	  -19.7947	    7.8399	    5.7707	  -27.9400	
 -390.0000	-9.9800E-7	-9.9900E-7	-9.9800E-7	-9.9800E-7	-9.9700E-7	-9.933280E-7	-9.935018E-7	-9.928266E-7	-9.939921E-7	-9.929913E-7	  -19.8329	    7.9389	    5.7467	  -27.9125	
 -400.0000	-1.0200E-6	-1.0190E-6	-1.0200E-6	-1.0190E-6	-1.0220E-6	-1.016247E-6	-1.016884E-6	-1.017403E-6	-1.014572E-6	-1.016128E-6	  -19.8710	    8.0851	    5.7211	  -27.8537	
 -410.0000	-1.0393E-6	-1.0400E-6	-1.0380E-6	-1.0400E-6	-1.0390E-6	-1.035033E-6	-1.035477E-6	-1.035196E-6	-1.034495E-6	-1.034963E-6	  -19.9194	    7.8718	    5.6774	  -28.0914	
 -420.0000	-1.0610E-6	-1.0610E-6	-1.0630E-6	-1.0600E-6	-1.0600E-6	-1.055656E-6	-1.055365E-6	-1.055295E-6	-1.055632E-6	-1.056334E-6	  -19.9346	    7.8718	    5.6578	  -28.1285	
 -430.0000	-1.0802E-6	-1.0810E-6	-1.0800E-6	-1.0810E-6	-1.0790E-6	-1.075223E-6	-1.076019E-6	-1.074176E-6	-1.074854E-6	-1.075842E-6	  -19.9906	    7.9352	    5.6180	  -28.1579	
 -440.0000	-1.0935E-6	-1.0960E-6	-1.0950E-6	-1.0910E-6	-1.0920E-6	-1.089571E-6	-1.086250E-6	-1.089330E-6	-1.090921E-6	-1.091783E-6	  -20.0135	    7.9419	    5.6034	  -28.1808	
 -450.0000	-1.1107E-6	-1.1120E-6	-1.1130E-6	-1.1110E-6	-1.1070E-6	-1.102882E-6	-1.103842E-6	-1.103218E-6	-1.102551E-6	-1.101915E-6	  -20.0465	    7.8509	    5.5825	  -28.2870	
 -460.0000	-1.1295E-6	-1.1300E-6	-1.1280E-6	-1.1310E-6	-1.1290E-6	-1.123989E-6	-1.124120E-6	-1.125092E-6	-1.123210E-6	-1.123536E-6	  -20.0771	    7.8500	    5.5699	  -28.3119	
 -470.0000	-1.1497E-6	-1.1510E-6	-1.1490E-6	-1.1490E-6	-1.1500E-6	-1.145437E-6	-1.143701E-6	-1.144381E-6	-1.145501E-6	-1.148167E-6	  -20.0898	    7.7888	    5.5598	  -28.3759	
 -480.0000	-1.1745E-6	-1.1730E-6	-1.1750E-6	-1.1750E-6	-1.1750E-6	-1.169571E-6	-1.172504E-6	-1.171667E-6	-1.168496E-6	-1.165617E-6	  -20.1051	    7.5614	    5.5487	  -28.5628	
 -490.0000	-1.1865E-6	-1.1890E-6	-1.1870E-6	-1.1860E-6	-1.1840E-6	-1.182170E-6	-1.180699E-6	-1.182758E-6	-1.183315E-6	-1.181909E-6	  -20.1356	    7.6965	    5.5443	  -28.4729	
 -500.0000	-1.2050E-6	-1.2060E-6	-1.2060E-6	-1.2060E-6	-1.2020E-6	-1.200507E-6	-1.200378E-6	-1.199654E-6	-1.201796E-6	-1.200201E-6	  -20.1381	    7.7843	    5.5266	  -28.4432	
 -510.0000	-1.2252E-6	-1.2240E-6	-1.2250E-6	-1.2260E-6	-1.2260E-6	-1.220207E-6	-1.222480E-6	-1.220156E-6	-1.218792E-6	-1.219399E-6	  -20.1457	    8.0295	    5.5092	  -28.2984	
 -520.0000	-1.2450E-6	-1.2490E-6	-1.2460E-6	-1.2420E-6	-1.2430E-6	-1.239016E-6	-1.238615E-6	-1.238564E-6	-1.239085E-6	-1.239799E-6	  -20.1483	    7.6538	    5.5009	  -28.5877	
 -530.0000	-1.2618E-6	-1.2620E-6	-1.2610E-6	-1.2620E-6	-1.2620E-6	-1.254618E-6	-1.255101E-6	-1.255091E-6	-1.255406E-6	-1.252874E-6	  -20.1508	    7.8483	    5.4836	  -28.4799	
 -540.0000	-1.2793E-6	-1.2800E-6	-1.2780E-6	-1.2780E-6	-1.2810E-6	-1.280486E-6	-1.280464E-6	-1.279795E-6	-1.281795E-6	-1.279891E-6	  -20.1610	    7.8895	    5.4510	  -28.5135	
 -550.0000	-1.3127E-6	-1.3120E-6	-1.3120E-6	-1.3130E-6	-1.3140E-6	-1.304011E-6	-1.307270E-6	-1.306056E-6	-1.301927E-6	-1.300792E-6	  -20.1457	    7.8895	    5.4462	  -28.5228	
 -560.0000	-1.3350E-6	-1.3340E-6	-1.3350E-6	-1.3340E-6	-1.3370E-6	-1.327759E-6	-1.326929E-6	-1.328391E-6	-1.328664E-6	-1.327051E-6	  -20.1508	    7.8659	    5.4244	  -28.5828	
 -570.0000	-1.3490E-6	-1.3520E-6	-1.3470E-6	-1.3470E-6	-1.3500E-6	-1.344109E-6	-1.345144E-6	-1.348210E-6	-1.341704E-6	-1.341380E-6	  -20.1407	    7.8906	    5.4108	  -28.5916	
 -580.0000	-1.3680E-6	-1.3670E-6	-1.3700E-6	-1.3700E-6	-1.3650E-6	-1.360527E-6	-1.359200E-6	-1.360401E-6	-1.361526E-6	-1.360982E-6	  -20.1305	    7.5843	    5.3918	  -28.8514	
 -590.0000	-1.3930E-6	-1.3920E-6	-1.3930E-6	-1.3900E-6	-1.3970E-6	-1.395680E-6	-1.403340E-6	-1.394679E-6	-1.391964E-6	-1.392737E-6	  -20.0974	    7.5843	    5.3732	  -28.8883	
 -600.0000	-1.4157E-6	-1.4240E-6	-1.4300E-6	-1.4080E-6	-1.4010E-6	-1.395638E-6	-1.391072E-6	-1.396109E-6	-1.398532E-6	-1.396839E-6	  -20.1051	    7.5550	    5.3558	  -28.9441	
 -610.0000	-1.4140E-6	-1.4170E-6	-1.4150E-6	-1.4130E-6	-1.4110E-6	-1.407048E-6	-1.403086E-6	-1.409567E-6	-1.406242E-6	-1.409297E-6	  -20.0949	    7.8066	    5.3412	  -28.7904	
 -620.0000	-1.4327E-6	-1.4320E-6	-1.4320E-6	-1.4350E-6	-1.4320E-6	-1.428618E-6	-1.430331E-6	-1.427702E-6	-1.428341E-6	-1.428097E-6	  -20.0771	    7.6273	    5.3283	  -28.9463	
 -630.0000	-1.4485E-6	-1.4470E-6	-1.4480E-6	-1.4500E-6	-1.4490E-6	-1.448879E-6	-1.444570E-6	-1.448166E-6	-1.451900E-6	-1.450880E-6	  -20.0669	    7.6273	    5.3213	  -28.9602	
 -640.0000	-1.4785E-6	-1.4760E-6	-1.4790E-6	-1.4810E-6	-1.4780E-6	-1.470757E-6	-1.474092E-6	-1.469853E-6	-1.470089E-6	-1.468993E-6	  -20.0745	    7.8421	    5.3036	  -28.8398	
 -650.0000	-1.5003E-6	-1.4980E-6	-1.4970E-6	-1.5020E-6	-1.5040E-6	-1.495468E-6	-1.496973E-6	-1.494406E-6	-1.493616E-6	-1.496877E-6	  -20.0669	    7.8844	    5.2843	  -28.8479	
 -660.0000	-1.5167E-6	-1.5170E-6	-1.5190E-6	-1.5150E-6	-1.5160E-6	-1.510666E-6	-1.507383E-6	-1.510759E-6	-1.511608E-6	-1.512914E-6	  -20.0465	    7.7683	    5.2559	  -28.9894	
 -670.0000	-1.5367E-6	-1.5340E-6	-1.5350E-6	-1.5370E-6	-1.5410E-6	-1.534564E-6	-1.534399E-6	-1.534323E-6	-1.535752E-6	-1.533781E-6	  -20.0262	    7.7683	    5.2587	  -28.9837	
 -680.0000	-1.5605E-6	-1.5600E-6	-1.5600E-6	-1.5590E-6	-1.5630E-6	-1.558042E-6	-1.554476E-6	-1.559327E-6	-1.561248E-6	-1.557117E-6	  -20.0237	    7.7805	    5.2397	  -29.0132	
 -690.0000	-1.5812E-6	-1.5790E-6	-1.5820E-6	-1.5810E-6	-1.5830E-6	-1.574239E-6	-1.577430E-6	-1.574750E-6	-1.571022E-6	-1.573755E-6	  -20.0084	    7.8121	    5.2277	  -29.0148	
 -700.0000	-1.5978E-6	-1.6030E-6	-1.6010E-6	-1.5950E-6	-1.5920E-6	-1.587756E-6	-1.585179E-6	-1.589197E-6	-1.586189E-6	-1.590460E-6	  -19.9906	    7.8023	    5.2106	  -29.0566	
 -710.0000	-1.6107E-6	-1.6140E-6	-1.6100E-6	-1.6100E-6	-1.6090E-6	-1.602058E-6	-1.599285E-6	-1.599801E-6	-1.605375E-6	-1.603772E-6	  -19.9804	    7.8023	    5.2034	  -29.0714	
 -720.0000	-1.6285E-6	-1.6290E-6	-1.6270E-6	-1.6300E-6	-1.6280E-6	-1.621351E-6	-1.623243E-6	-1.622079E-6	-1.620455E-6	-1.619626E-6	  -19.9753	    7.7744	    5.2049	  -29.0883	
 -730.0000	-1.6498E-6	-1.6500E-6	-1.6540E-6	-1.6480E-6	-1.6470E-6	-1.640114E-6	-1.639158E-6	-1.640067E-6	-1.640577E-6	-1.640654E-6	  -19.9550	    7.8649	    5.2005	  -29.0319	
 -740.0000	-1.6602E-6	-1.6580E-6	-1.6620E-6	-1.6620E-6	-1.6590E-6	-1.657904E-6	-1.656225E-6	-1.654140E-6	-1.660136E-6	-1.661115E-6	  -19.9524	    7.8946	    5.2065	  -28.9982	
 -750.0000	-1.6753E-6	-1.6770E-6	-1.6750E-6	-1.6750E-6	-1.6740E-6	-1.665270E-6	-1.667820E-6	-1.666411E-6	-1.662989E-6	-1.663861E-6	  -19.9346	    7.9031	    5.2068	  -28.9914	
 -760.0000	-1.6975E-6	-1.6970E-6	-1.6950E-6	-1.6990E-6	-1.6990E-6	-1.687843E-6	-1.685948E-6	-1.685932E-6	-1.687379E-6	-1.692114E-6	  -19.9423	    7.9211	    5.1863	  -29.0203	
 -770.0000	-1.7147E-6	-1.7110E-6	-1.7150E-6	-1.7170E-6	-1.7160E-6	-1.705646E-6	-1.702998E-6	-1.706679E-6	-1.704194E-6	-1.708713E-6	  -19.9346	    7.8615	    5.2005	  -29.0344	
 -780.0000	-1.7243E-6	-1.7250E-6	-1.7230E-6	-1.7210E-6	-1.7280E-6	-1.721997E-6	-1.720132E-6	-1.722078E-6	-1.721455E-6	-1.724324E-6	  -19.9346	    7.6966	    5.1973	  -29.1601	
 -790.0000	-1.7467E-6	-1.7470E-6	-1.7410E-6	-1.7450E-6	-1.7540E-6	-1.745848E-6	-1.749987E-6	-1.744338E-6	-1.744904E-6	-1.744164E-6	  -19.9295	    7.7820	    5.2005	  -29.0919	
 -800.0000	-1.7730E-6	-1.7770E-6	-1.7750E-6	-1.7700E-6	-1.7700E-6	-1.762428E-6	-1.763957E-6	-1.765325E-6	-1.760128E-6	-1.760300E-6	  -19.9423	    7.8459	    5.1913	  -29.0644	
 -810.0000	-1.7998E-6	-1.7990E-6	-1.7950E-6	-1.7990E-6	-1.8060E-6	-1.794427E-6	-1.798985E-6	-1.791490E-6	-1.794927E-6	-1.792308E-6	  -19.9448	    7.7428	    5.1926	  -29.1363	
 -820.0000	-1.8217E-6	-1.8240E-6	-1.8210E-6	-1.8210E-6	-1.8210E-6	-1.809613E-6	-1.811065E-6	-1.811474E-6	-1.812210E-6	-1.803703E-6	  -19.9448	    7.7926	    5.1613	  -29.1645	
 -830.0000	-1.8340E-6	-1.8300E-6	-1.8350E-6	-1.8340E-6	-1.8370E-6	-1.835622E-6	-1.832589E-6	-1.834705E-6	-1.836002E-6	-1.839191E-6	  -19.9626	    7.7751	    5.1350	  -29.2312	
 -840.0000	-1.8577E-6	-1.8620E-6	-1.8520E-6	-1.8570E-6	-1.8600E-6	-1.846480E-6	-1.849871E-6	-1.841874E-6	-1.844649E-6	-1.849526E-6	  -19.9677	    7.8505	    5.1278	  -29.1917	
 -850.0000	-1.8825E-6	-1.8720E-6	-1.8770E-6	-1.8890E-6	-1.8920E-6	-1.884616E-6	-1.881900E-6	-1.882694E-6	-1.885080E-6	-1.888790E-6	  -19.9626	    7.8430	    5.1082	  -29.2377	
 -860.0000	-1.9332E-6	-1.9310E-6	-1.9370E-6	-1.9360E-6	-1.9290E-6	-1.926526E-6	-1.928034E-6	-1.924343E-6	-1.926968E-6	-1.926758E-6	  -19.9652	    7.8265	    5.0841	  -29.2996	
 -870.0000	-1.9488E-6	-1.9560E-6	-1.9520E-6	-1.9470E-6	-1.9400E-6	-1.929474E-6	-1.930400E-6	-1.927233E-6	-1.927599E-6	-1.932664E-6	  -19.9753	    7.8628	    5.0658	  -29.3116	
 -880.0000	-1.9652E-6	-1.9560E-6	-1.9620E-6	-1.9650E-6	-1.9780E-6	-1.970907E-6	-1.971947E-6	-1.968136E-6	-1.966866E-6	-1.976678E-6	  -19.9931	    7.8597	    5.0569	  -29.3324	
 -890.0000	-1.9752E-6	-1.9710E-6	-1.9710E-6	-1.9790E-6	-1.9800E-6	-1.959196E-6	-1.970722E-6	-1.962187E-6	-1.955070E-6	-1.948807E-6	  -19.9830	    7.7999	    5.0436	  -29.4034	
 -900.0000	-1.9655E-6	-1.9680E-6	-1.9630E-6	-1.9660E-6	-1.9650E-6	-1.959515E-6	-1.960801E-6	-1.962676E-6	-1.959864E-6	-1.954720E-6	  -19.9804	    7.7421	    5.0313	  -29.4710	
 -910.0000	-1.9893E-6	-1.9890E-6	-1.9910E-6	-1.9890E-6	-1.9880E-6	-1.975824E-6	-1.975206E-6	-1.974441E-6	-1.978194E-6	-1.975455E-6	  -19.9804	    7.7421	    5.0250	  -29.4842	
 -920.0000	-2.0005E-6	-2.0080E-6	-2.0000E-6	-1.9960E-6	-1.9980E-6	-1.993225E-6	-1.992782E-6	-1.993344E-6	-1.992844E-6	-1.993928E-6	  -19.9804	    7.6507	    5.0383	  -29.5222	
 -930.0000	-2.0330E-6	-2.0310E-6	-2.0370E-6	-2.0320E-6	-2.0320E-6	-2.014540E-6	-2.023290E-6	-2.015601E-6	-2.011797E-6	-2.007471E-6	  -19.9753	    7.6825	    5.0446	  -29.4860	
 -940.0000	-2.0363E-6	-2.0330E-6	-2.0310E-6	-2.0390E-6	-2.0420E-6	-2.032696E-6	-2.032130E-6	-2.029422E-6	-2.035509E-6	-2.033723E-6	  -19.9906	    7.7024	    5.0345	  -29.4929	
 -950.0000	-2.0520E-6	-2.0590E-6	-2.0500E-6	-2.0510E-6	-2.0480E-6	-2.039714E-6	-2.039277E-6	-2.036389E-6	-2.040527E-6	-2.042665E-6	  -19.9982	    7.7024	    5.0395	  -29.4823	
 -960.0000	-2.0820E-6	-2.0780E-6	-2.0810E-6	-2.0850E-6	-2.0840E-6	-2.071597E-6	-2.072252E-6	-2.070762E-6	-2.067924E-6	-2.075448E-6	  -19.9931	    7.6982	    5.0060	  -29.5558	
 -970.0000	-2.0952E-6	-2.0950E-6	-2.0950E-6	-2.0960E-6	-2.0950E-6	-2.091425E-6	-2.092906E-6	-2.095315E-6	-2.093111E-6	-2.084369E-6	  -20.0084	    7.7851	    5.0108	  -29.4759	
 -980.0000	-2.1000E-6	-2.0980E-6	-2.0970E-6	-2.0990E-6	-2.1060E-6	-2.094441E-6	-2.096305E-6	-2.093689E-6	-2.092379E-6	-2.095391E-6	  -20.0262	    7.5448	    4.9930	  -29.6937	
 -990.0000	-2.1185E-6	-2.1220E-6	-2.1220E-6	-2.1180E-6	-2.1120E-6	-2.104454E-6	-2.105733E-6	-2.105272E-6	-2.104218E-6	-2.102592E-6	  -20.0211	    7.8309	    4.9915	  -29.4909	
-1000.0000	-2.1325E-6	-2.1320E-6	-2.1360E-6	-2.1310E-6	-2.1310E-6	-2.114292E-6	-2.119452E-6	-2.114164E-6	-2.115632E-6	-2.107921E-6	  -20.0364	    7.7583	    4.9753	  -29.5774	
