GCD Test
Bias: 5000.000000
IV_34331_042_2-S_HM_XX_DIODEHALFPSTOP
Date/Time: 9/9/2021 4:24:57 PM
Sensor Name: DIODEHALFPSTOP
Type: P
Annealing Status: Not Irradiated and Not Annealed
Environment: -20C
Tester: Andrew Kent

Time Delay per Ramp Step (s): 0.500

CV Time Delay per Measurement (s) :0.500

AC Voltage (V): 0.500

Current Number of measurements per voltage: 1.000

IV Time Delay per Measurement (s) :0.000


BiasVoltage	Total Current_Avg	Total Current_0	Bias Current_Avg	Bias Current_0	Temperature	Air_Temp	Humidity	Dewpoint	
   -5.0000	7.0100E-10	7.0100E-10	-4.663576E-11	-4.663576E-11	   19.8057	   19.8911	    8.2132	  -14.9643	
  -10.0000	5.4900E-10	5.4900E-10	-4.862133E-11	-4.862133E-11	   19.8057	   19.8898	    8.2132	  -15.0099	
  -15.0000	4.6600E-10	4.6600E-10	-5.060733E-11	-5.060733E-11	   19.8185	   19.8830	    8.1977	  -15.0378	
  -20.0000	3.6300E-10	3.6300E-10	-5.436824E-11	-5.436824E-11	   19.8623	   19.8824	    8.0867	  -15.2028	
  -25.0000	2.9500E-10	2.9500E-10	-5.818600E-11	-5.818600E-11	   19.9447	   19.8824	    8.1569	  -15.0985	
  -30.0000	1.9400E-10	1.9400E-10	-6.013856E-11	-6.013856E-11	   20.0502	   19.8899	    8.1720	  -15.0704	
  -35.0000	1.7700E-10	1.7700E-10	-6.176216E-11	-6.176216E-11	   20.1583	   19.8990	    8.3112	  -14.8595	
  -40.0000	8.4000E-11	8.4000E-11	-6.265521E-11	-6.265521E-11	   20.2484	   19.9022	    8.2843	  -14.8964	
  -45.0000	1.2800E-10	1.2800E-10	-6.339226E-11	-6.339226E-11	   20.3127	   19.9051	    8.2745	  -14.9085	
  -50.0000	6.7000E-11	6.7000E-11	-6.333870E-11	-6.333870E-11	   20.3153	   19.9096	    8.2710	  -14.9102	
  -55.0000	3.9000E-11	3.9000E-11	-6.379298E-11	-6.379298E-11	   20.2535	   19.9096	    8.2710	  -14.9102	
  -60.0000	6.9000E-11	6.9000E-11	-6.382964E-11	-6.382964E-11	   20.1634	   19.9110	    8.2448	  -14.9476	
  -65.0000	-8.1000E-11	-8.1000E-11	-6.435765E-11	-6.435765E-11	   20.0708	   19.9037	    8.2100	  -15.0041	
  -70.0000	-6.8000E-11	-6.8000E-11	-6.581687E-11	-6.581687E-11	   19.9678	   19.9007	    8.2562	  -15.0231	
  -75.0000	-6.5000E-11	-6.5000E-11	-6.740009E-11	-6.740009E-11	   19.8906	   19.9007	    8.3510	  -14.9386	
  -80.0000	-1.3800E-10	-1.3800E-10	-7.044132E-11	-7.044132E-11	   19.8314	   19.8927	    8.3216	  -14.8064	
  -85.0000	-9.6000E-11	-9.6000E-11	-7.441856E-11	-7.441856E-11	   19.8314	   19.8891	    8.3216	  -14.8518	
  -90.0000	-8.2000E-11	-8.2000E-11	-7.933454E-11	-7.933454E-11	   19.8108	   19.8795	    8.3106	  -14.8751	
  -95.0000	-2.1600E-10	-2.1600E-10	-8.355852E-11	-8.355852E-11	   19.8288	   19.8792	    8.3314	  -14.8450	
 -100.0000	-1.1500E-10	-1.1500E-10	-8.710282E-11	-8.710282E-11	   19.8855	   19.8827	    8.3400	  -14.8300	
 -105.0000	-1.5600E-10	-1.5600E-10	-9.031418E-11	-9.031418E-11	   19.9601	   19.8806	    8.2982	  -14.8922	
 -110.0000	-2.3100E-10	-2.3100E-10	-9.276403E-11	-9.276403E-11	   20.0579	   19.8781	    8.3166	  -14.8674	
 -115.0000	-3.0700E-10	-3.0700E-10	-9.420197E-11	-9.420197E-11	   20.1557	   19.8891	    8.3061	  -14.8743	
 -120.0000	-2.0100E-10	-2.0100E-10	-9.440086E-11	-9.440086E-11	   20.2355	   19.8957	    8.3393	  -14.8211	
 -125.0000	-2.0700E-10	-2.0700E-10	-9.445483E-11	-9.445483E-11	   20.2921	   19.9030	    8.3789	  -14.7584	
 -130.0000	-3.1100E-10	-3.1100E-10	-9.383288E-11	-9.383288E-11	   20.3050	   19.8985	    8.3605	  -14.7883	
 -135.0000	-2.7400E-10	-2.7400E-10	-9.328711E-11	-9.328711E-11	   20.2716	   19.8987	    8.3640	  -14.7831	
 -140.0000	-2.7000E-10	-2.7000E-10	-9.269127E-11	-9.269127E-11	   20.2072	   19.8979	    8.3748	  -14.7682	
 -145.0000	-3.1500E-10	-3.1500E-10	-9.256722E-11	-9.256722E-11	   20.1171	   19.8985	    8.3428	  -14.8140	
 -150.0000	-2.7300E-10	-2.7300E-10	-9.171616E-11	-9.171616E-11	   20.0219	   19.8903	    8.3324	  -14.8353	
 -155.0000	-3.5900E-10	-3.5900E-10	-9.185730E-11	-9.185730E-11	   19.9266	   19.8894	    8.3273	  -14.8433	
 -160.0000	-3.0100E-10	-3.0100E-10	-9.246969E-11	-9.246969E-11	   19.8391	   19.8816	    8.3299	  -14.8455	
 -165.0000	-3.4600E-10	-3.4600E-10	-9.252506E-11	-9.252506E-11	   19.7799	   19.8763	    8.3390	  -14.8362	
 -170.0000	-3.3300E-10	-3.3300E-10	-9.400401E-11	-9.400401E-11	   19.7568	   19.8780	    8.3820	  -14.7726	
 -175.0000	-4.8400E-10	-4.8400E-10	-9.552473E-11	-9.552473E-11	   19.7748	   19.8788	    8.3406	  -14.8319	
 -180.0000	-4.8700E-10	-4.8700E-10	-9.785886E-11	-9.785886E-11	   19.8391	   19.8792	    8.3627	  -14.7996	
 -185.0000	-4.5300E-10	-4.5300E-10	-9.952256E-11	-9.952256E-11	   19.9292	   19.8764	    8.4143	  -14.7273	
 -190.0000	-4.2700E-10	-4.2700E-10	-1.012948E-10	-1.012948E-10	   20.0553	   19.8846	    8.3817	  -14.7681	
 -195.0000	-5.6600E-10	-5.6600E-10	-1.024511E-10	-1.024511E-10	   20.1815	   19.8920	    8.4190	  -14.7088	
 -200.0000	-5.2200E-10	-5.2200E-10	-1.033020E-10	-1.033020E-10	   20.2767	   19.8975	    8.3545	  -14.7977	
 -205.0000	-4.4700E-10	-4.4700E-10	-1.024796E-10	-1.024796E-10	   20.3488	   19.8978	    8.3643	  -14.7834	
 -210.0000	-5.4800E-10	-5.4800E-10	-1.011510E-10	-1.011510E-10	   20.3616	   19.8992	    8.3419	  -14.8148	
 -215.0000	-5.3100E-10	-5.3100E-10	-1.003003E-10	-1.003003E-10	   20.3256	   19.9012	    8.3416	  -14.8138	
 -220.0000	-5.1500E-10	-5.1500E-10	-9.984807E-11	-9.984807E-11	   20.1815	   19.9027	    8.2606	  -14.9307	
 -225.0000	-6.0300E-10	-6.0300E-10	-9.840010E-11	-9.840010E-11	   20.0734	   19.9027	    8.3631	  -14.9307	
 -230.0000	-5.4100E-10	-5.4100E-10	-9.780036E-11	-9.780036E-11	   19.9678	   19.8965	    8.3631	  -14.7862	
 -235.0000	-5.2900E-10	-5.2900E-10	-9.757360E-11	-9.757360E-11	   19.8880	   19.8810	    8.2963	  -14.7681	
 -240.0000	-6.0200E-10	-6.0200E-10	-9.782294E-11	-9.782294E-11	   19.8314	   19.8810	    8.3153	  -14.8947	
 -245.0000	-6.6300E-10	-6.6300E-10	-9.875229E-11	-9.875229E-11	   19.8160	   19.8833	    8.2748	  -14.8654	
 -250.0000	-6.6000E-10	-6.6000E-10	-1.003877E-10	-1.003877E-10	   19.8443	   19.8799	    8.2328	  -14.9269	
 -255.0000	-6.5700E-10	-6.5700E-10	-1.022353E-10	-1.022353E-10	   19.9009	   19.8703	    8.2362	  -14.9957	
 -260.0000	-6.5100E-10	-6.5100E-10	-1.042182E-10	-1.042182E-10	   19.9833	   19.8753	    8.2587	  -14.9868	
 -265.0000	-5.9700E-10	-5.9700E-10	-1.054232E-10	-1.054232E-10	   20.0862	   19.8818	    8.3077	  -14.9490	
 -270.0000	-6.5400E-10	-6.5400E-10	-1.070533E-10	-1.070533E-10	   20.1737	   19.8832	    8.3191	  -14.8764	
 -275.0000	-7.4200E-10	-7.4200E-10	-1.072878E-10	-1.072878E-10	   20.2432	   19.8973	    8.3457	  -14.8493	
 -280.0000	-6.2600E-10	-6.2600E-10	-1.074483E-10	-1.074483E-10	   20.2741	   19.8940	    8.2856	  -14.8132	
 -285.0000	-7.6300E-10	-7.6300E-10	-1.067536E-10	-1.067536E-10	   20.2690	   19.8862	    8.3235	  -14.9065	
 -290.0000	-6.8800E-10	-6.8800E-10	-1.056100E-10	-1.056100E-10	   20.2690	   19.8886	    8.3235	  -14.8494	
 -295.0000	-6.4200E-10	-6.4200E-10	-1.048164E-10	-1.048164E-10	   20.2046	   19.8876	    8.3574	  -14.8011	
 -300.0000	-6.3800E-10	-6.3800E-10	-1.035006E-10	-1.035006E-10	   20.1300	   19.8866	    8.4026	  -14.7365	
 -305.0000	-6.4400E-10	-6.4400E-10	-1.031718E-10	-1.031718E-10	   20.0296	   19.8852	    8.3697	  -14.7850	
 -310.0000	-6.7900E-10	-6.7900E-10	-1.020228E-10	-1.020228E-10	   19.9395	   19.8783	    8.3618	  -14.8016	
 -315.0000	-7.3800E-10	-7.3800E-10	-1.024242E-10	-1.024242E-10	   19.8572	   19.8742	    8.2837	  -14.9182	
 -320.0000	-6.7400E-10	-6.7400E-10	-1.030180E-10	-1.030180E-10	   19.7902	   19.8669	    8.3093	  -14.8864	
 -325.0000	-7.0500E-10	-7.0500E-10	-1.040946E-10	-1.040946E-10	   19.7619	   19.8654	    8.3387	  -14.8447	
 -330.0000	-8.4700E-10	-8.4700E-10	-1.053872E-10	-1.053872E-10	   19.7722	   19.8692	    8.2751	  -14.9345	
 -335.0000	-8.8800E-10	-8.8800E-10	-1.074499E-10	-1.074499E-10	   19.8185	   19.8682	    8.3115	  -14.8822	
 -340.0000	-8.0500E-10	-8.0500E-10	-1.095233E-10	-1.095233E-10	   19.9009	   19.8690	    8.3349	  -14.8475	
 -345.0000	-8.3800E-10	-8.3800E-10	-1.109513E-10	-1.109513E-10	   20.0142	   19.8747	    8.3627	  -14.8029	
 -350.0000	-8.9100E-10	-8.9100E-10	-1.123529E-10	-1.123529E-10	   20.1377	   19.8774	    8.2808	  -14.9200	
 -355.0000	-8.6200E-10	-8.6200E-10	-1.131425E-10	-1.131425E-10	   20.2407	   19.8879	    8.3163	  -14.8605	
 -360.0000	-8.6700E-10	-8.6700E-10	-1.125829E-10	-1.125829E-10	   20.3205	   19.8930	    8.2957	  -14.8866	
 -365.0000	-8.1900E-10	-8.1900E-10	-1.117344E-10	-1.117344E-10	   20.3539	   19.8978	    8.1676	  -15.0710	
 -370.0000	-8.6200E-10	-8.6200E-10	-1.104335E-10	-1.104335E-10	   20.3333	   19.8902	    8.2451	  -14.9627	
 -375.0000	-9.4300E-10	-9.4300E-10	-1.095675E-10	-1.095675E-10	   20.2793	   19.8887	    8.3966	  -14.7435	
 -380.0000	-9.2800E-10	-9.2800E-10	-1.080576E-10	-1.080576E-10	   20.1892	   19.8879	    8.2824	  -14.9099	
 -385.0000	-8.4500E-10	-8.4500E-10	-1.071639E-10	-1.071639E-10	   20.0862	   19.8849	    8.3523	  -14.8104	
 -390.0000	-9.2900E-10	-9.2900E-10	-1.066734E-10	-1.066734E-10	   19.9781	   19.8810	    8.2489	  -14.9641	
 -395.0000	-8.9400E-10	-8.9400E-10	-1.064648E-10	-1.064648E-10	   19.8829	   19.8715	    8.3548	  -14.8168	
 -400.0000	-9.4800E-10	-9.4800E-10	-1.066373E-10	-1.066373E-10	   19.8185	   19.8661	    8.3656	  -14.8053	
 -410.0000	-1.1340E-9	-1.1340E-9	-1.082021E-10	-1.082021E-10	   19.7877	   19.8642	    8.3238	  -14.8672	
 -420.0000	-1.0430E-9	-1.0430E-9	-1.101178E-10	-1.101178E-10	   19.8340	   19.8642	    8.3539	  -14.8672	
 -430.0000	-1.1100E-9	-1.1100E-9	-1.119597E-10	-1.119597E-10	   19.9189	   19.8645	    8.3273	  -14.8235	
 -440.0000	-1.0940E-9	-1.0940E-9	-1.145690E-10	-1.145690E-10	   20.0347	   19.8567	    8.2527	  -14.8678	
 -450.0000	-1.2490E-9	-1.2490E-9	-1.166233E-10	-1.166233E-10	   20.0347	   19.8680	    8.2527	  -14.9682	
 -460.0000	-1.2950E-9	-1.2950E-9	-1.179189E-10	-1.179189E-10	   20.1660	   19.8711	    8.4380	  -14.6972	
 -470.0000	-1.3120E-9	-1.3120E-9	-1.186209E-10	-1.186209E-10	   20.2741	   19.8803	    8.4380	  -14.6903	
 -480.0000	-1.2310E-9	-1.2310E-9	-1.180802E-10	-1.180802E-10	   20.3514	   19.8816	    8.5193	  -14.5731	
 -490.0000	-1.2150E-9	-1.2150E-9	-1.171719E-10	-1.171719E-10	   20.3745	   19.8808	    8.4099	  -14.7304	
 -500.0000	-1.2790E-9	-1.2790E-9	-1.156094E-10	-1.156094E-10	   20.3514	   19.8843	    8.4058	  -14.7337	
 -510.0000	-1.3030E-9	-1.3030E-9	-1.144035E-10	-1.144035E-10	   20.2819	   19.8874	    8.2761	  -14.9194	
 -520.0000	-1.2950E-9	-1.2950E-9	-1.132156E-10	-1.132156E-10	   20.1866	   19.8771	    8.3106	  -14.8769	
 -530.0000	-1.2270E-9	-1.2270E-9	-1.124373E-10	-1.124373E-10	   20.0142	   19.8713	    8.2954	  -14.9033	
 -540.0000	-1.3580E-9	-1.3580E-9	-1.114880E-10	-1.114880E-10	   19.8932	   19.8713	    8.2954	  -14.9033	
 -550.0000	-1.4120E-9	-1.4120E-9	-1.112834E-10	-1.112834E-10	   19.8211	   19.8581	    8.3077	  -14.8621	
 -560.0000	-1.4200E-9	-1.4200E-9	-1.125454E-10	-1.125454E-10	   19.7928	   19.8581	    8.2441	  -14.8953	
 -570.0000	-1.4620E-9	-1.4620E-9	-1.139606E-10	-1.139606E-10	   19.7928	   19.8509	    8.2441	  -14.9935	
 -580.0000	-1.6680E-9	-1.6680E-9	-1.165035E-10	-1.165035E-10	   19.8314	   19.8497	    8.2090	  -15.0460	
 -590.0000	-1.6330E-9	-1.6330E-9	-1.183368E-10	-1.183368E-10	   19.9086	   19.8512	    8.2170	  -15.0332	
 -600.0000	-1.8180E-9	-1.8180E-9	-1.202309E-10	-1.202309E-10	   20.0064	   19.8560	    8.1363	  -15.1486	
 -610.0000	-1.7870E-9	-1.7870E-9	-1.219693E-10	-1.219693E-10	   20.1042	   19.8606	    8.2245	  -15.0150	
 -620.0000	-1.6730E-9	-1.6730E-9	-1.227722E-10	-1.227722E-10	   20.2510	   19.8606	    8.2059	  -15.0150	
 -630.0000	-1.8600E-9	-1.8600E-9	-1.229462E-10	-1.229462E-10	   20.2510	   19.8639	    8.2059	  -15.0400	
 -640.0000	-1.7860E-9	-1.7860E-9	-1.232831E-10	-1.232831E-10	   20.3488	   19.8728	    8.2761	  -14.9304	
 -650.0000	-1.8250E-9	-1.8250E-9	-1.226886E-10	-1.226886E-10	   20.3694	   19.8728	    8.3068	  -14.9304	
 -660.0000	-1.7760E-9	-1.7760E-9	-1.219052E-10	-1.219052E-10	   20.3694	   19.8827	    8.3068	  -14.8782	
 -670.0000	-1.9230E-9	-1.9230E-9	-1.208728E-10	-1.208728E-10	   20.3359	   19.8740	    8.3150	  -14.8728	
 -680.0000	-1.9350E-9	-1.9350E-9	-1.195912E-10	-1.195912E-10	   20.2226	   19.8740	    8.3719	  -14.8728	
 -690.0000	-1.8520E-9	-1.8520E-9	-1.188709E-10	-1.188709E-10	   20.2226	   19.8743	    8.3719	  -14.7900	
 -700.0000	-1.8380E-9	-1.8380E-9	-1.179397E-10	-1.179397E-10	   20.1197	   19.8600	    8.2884	  -14.9220	
 -710.0000	-1.9240E-9	-1.9240E-9	-1.178118E-10	-1.178118E-10	   19.9910	   19.8600	    8.2897	  -14.9220	
 -720.0000	-2.0090E-9	-2.0090E-9	-1.175372E-10	-1.175372E-10	   19.9910	   19.8600	    8.2897	  -14.9201	
 -730.0000	-1.8540E-9	-1.8540E-9	-1.169819E-10	-1.169819E-10	   19.9035	   19.8544	    8.2799	  -14.9386	
 -740.0000	-1.9700E-9	-1.9700E-9	-1.177971E-10	-1.177971E-10	   19.8469	   19.8469	    8.2160	  -15.0378	
 -750.0000	-2.0440E-9	-2.0440E-9	-1.189592E-10	-1.189592E-10	   19.8108	   19.8469	    8.2242	  -15.0378	
 -760.0000	-2.0090E-9	-2.0090E-9	-1.197556E-10	-1.197556E-10	   19.8108	   19.8463	    8.2242	  -15.0262	
 -770.0000	-2.2490E-9	-2.2490E-9	-1.212565E-10	-1.212565E-10	   19.8314	   19.8510	    8.2641	  -14.9643	
 -780.0000	-2.1350E-9	-2.1350E-9	-1.232686E-10	-1.232686E-10	   19.9086	   19.8510	    8.2875	  -14.9643	
 -790.0000	-2.2130E-9	-2.2130E-9	-1.255074E-10	-1.255074E-10	   19.9858	   19.8510	    8.2875	  -14.9301	
 -800.0000	-2.2670E-9	-2.2670E-9	-1.275797E-10	-1.275797E-10	   19.9858	   19.8540	    8.2460	  -14.9884	
 -810.0000	-2.3700E-9	-2.3700E-9	-1.288234E-10	-1.288234E-10	   20.0939	   19.8540	    8.3352	  -14.8584	
 -820.0000	-2.3430E-9	-2.3430E-9	-1.299920E-10	-1.299920E-10	   20.1763	   19.8639	    8.3520	  -14.8266	
 -830.0000	-2.2300E-9	-2.2300E-9	-1.308338E-10	-1.308338E-10	   20.2716	   19.8639	    8.3520	  -14.8266	
 -840.0000	-2.3030E-9	-2.3030E-9	-1.312070E-10	-1.312070E-10	   20.2716	   19.8679	    8.3520	  -14.8236	
 -850.0000	-2.2590E-9	-2.2590E-9	-1.310999E-10	-1.310999E-10	   20.3153	   19.8679	    8.2742	  -14.8236	
 -860.0000	-2.3100E-9	-2.3100E-9	-1.312584E-10	-1.312584E-10	   20.3153	   19.8719	    8.2742	  -14.9339	
 -870.0000	-2.3060E-9	-2.3060E-9	-1.301098E-10	-1.301098E-10	   20.2664	   19.8719	    8.2568	  -14.9339	
 -880.0000	-2.2770E-9	-2.2770E-9	-1.297571E-10	-1.297571E-10	   20.2664	   19.8658	    8.2568	  -14.9638	
 -890.0000	-2.3520E-9	-2.3520E-9	-1.291456E-10	-1.291456E-10	   20.1918	   19.8629	    8.3561	  -14.8214	
 -900.0000	-2.3260E-9	-2.3260E-9	-1.287547E-10	-1.287547E-10	   20.0734	   19.8629	    8.2552	  -14.8214	
 -910.0000	-2.2550E-9	-2.2550E-9	-1.282646E-10	-1.282646E-10	   20.0734	   19.8630	    8.2552	  -14.9682	
 -920.0000	-2.2740E-9	-2.2740E-9	-1.283724E-10	-1.283724E-10	   19.9550	   19.8578	    8.2998	  -14.9070	
 -930.0000	-2.4160E-9	-2.4160E-9	-1.285581E-10	-1.285581E-10	   19.8288	   19.8578	    8.3590	  -14.9070	
 -940.0000	-2.2780E-9	-2.2780E-9	-1.297258E-10	-1.297258E-10	   19.8288	   19.8506	    8.3590	  -14.8265	
 -950.0000	-2.6670E-9	-2.6670E-9	-1.306747E-10	-1.306747E-10	   19.7491	   19.8348	    8.3223	  -14.8916	
 -960.0000	-2.3780E-9	-2.3780E-9	-1.324333E-10	-1.324333E-10	   19.7491	   19.8348	    8.3223	  -14.8916	
 -970.0000	-2.4990E-9	-2.4990E-9	-1.354569E-10	-1.354569E-10	   19.7413	   19.8348	    8.3115	  -14.9072	
 -980.0000	-2.6240E-9	-2.6240E-9	-1.378963E-10	-1.378963E-10	   19.8005	   19.8348	    8.2290	  -14.9072	
 -990.0000	-2.7500E-9	-2.7500E-9	-1.420991E-10	-1.420991E-10	   19.8005	   19.8348	    8.2290	  -15.0279	
-1000.0000	-2.9080E-9	-2.9080E-9	-1.451148E-10	-1.451148E-10	   19.8906	   19.8377	    8.2603	  -14.9798
-1000.0000	-2.9080E-9	-2.9080E-9	-1.451148E-10	-1.451148E-10	   19.8906	   19.8377	    8.2603	  -14.9798
-1000.0000	-2.9080E-9	-2.9080E-9	-1.451148E-10	-1.451148E-10	   19.8906	   19.8377	    8.2603	  -14.9798	
