GCD Test
Bias: 5000.000000
IV_37398_012_PSS_HM_XX_DIODEHALF
Date/Time: 11/8/2021 2:24:20 PM
Sensor Name: DIODEHALF
Type: P
Annealing Status: Not Irradiated and not Annealed
Environment: 20C
Tester: Andrew Kent

Time Delay per Ramp Step (s): 0.500

CV Time Delay per Measurement (s) :0.500

AC Voltage (V): 0.500

Current Number of measurements per voltage: 1.000

IV Time Delay per Measurement (s) :0.000


BiasVoltage	Total Current_Avg	Total Current_0	Bias Current_Avg	Bias Current_0	Temperature	Air_Temp	Humidity	Dewpoint	
   -5.0000	1.7500E-10	1.7500E-10	-6.246240E-11	-6.246240E-11	   20.0605	   21.6636	    6.8273	  -15.9200	
  -10.0000	9.0000E-11	9.0000E-11	-6.416219E-11	-6.416219E-11	   20.0605	   21.6650	    6.7650	  -16.0288	
  -15.0000	1.2900E-10	1.2900E-10	-6.630584E-11	-6.630584E-11	   20.0605	   21.6640	    6.7166	  -16.1154	
  -20.0000	1.4400E-10	1.4400E-10	-6.844971E-11	-6.844971E-11	   20.0605	   21.6640	    6.6837	  -16.1154	
  -25.0000	1.3300E-10	1.3300E-10	-7.083253E-11	-7.083253E-11	   20.0605	   21.6683	    6.6692	  -16.1710	
  -30.0000	5.5000E-11	5.5000E-11	-7.531890E-11	-7.531890E-11	   20.0579	   21.6704	    6.6401	  -16.1955	
  -35.0000	-7.1000E-11	-7.1000E-11	-8.194651E-11	-8.194651E-11	   20.0579	   21.6675	    6.6278	  -16.2498	
  -40.0000	-3.0000E-11	-3.0000E-11	-9.059310E-11	-9.059310E-11	   20.0605	   21.6664	    6.6097	  -16.2728	
  -45.0000	-1.1000E-10	-1.1000E-10	-9.344770E-11	-9.344770E-11	   20.0579	   21.6696	    6.5977	  -16.3030	
  -50.0000	-1.1400E-10	-1.1400E-10	-9.877217E-11	-9.877217E-11	   20.0579	   21.6698	    6.5977	  -16.3246	
  -55.0000	-1.0200E-10	-1.0200E-10	-1.002843E-10	-1.002843E-10	   20.0605	   21.6707	    6.5769	  -16.3618	
  -60.0000	-1.1200E-10	-1.1200E-10	-1.018268E-10	-1.018268E-10	   20.0605	   21.6733	    6.5702	  -16.3720	
  -65.0000	-4.5000E-11	-4.5000E-11	-1.021240E-10	-1.021240E-10	   20.0605	   21.6662	    6.5769	  -16.3651	
  -70.0000	-2.0900E-10	-2.0900E-10	-1.034975E-10	-1.034975E-10	   20.0579	   21.6673	    6.5557	  -16.4028	
  -75.0000	-8.3000E-11	-8.3000E-11	-1.041382E-10	-1.041382E-10	   20.0579	   21.6704	    6.5563	  -16.3993	
  -80.0000	-2.2500E-10	-2.2500E-10	-1.048668E-10	-1.048668E-10	   20.0605	   21.6739	    6.5440	  -16.4193	
  -85.0000	-1.6400E-10	-1.6400E-10	-1.049221E-10	-1.049221E-10	   20.0605	   21.6714	    6.5351	  -16.4373	
  -90.0000	-2.5100E-10	-2.5100E-10	-1.056784E-10	-1.056784E-10	   20.0605	   21.6722	    6.5323	  -16.4419	
  -95.0000	-1.9500E-10	-1.9500E-10	-1.058359E-10	-1.058359E-10	   20.0605	   21.6691	    6.5335	  -16.4418	
 -100.0000	-1.7400E-10	-1.7400E-10	-1.065092E-10	-1.065092E-10	   20.0579	   21.6715	    6.5376	  -16.4326	
 -105.0000	-1.5900E-10	-1.5900E-10	-1.064299E-10	-1.064299E-10	   20.0605	   21.6716	    6.5323	  -16.4423	
 -110.0000	-3.0400E-10	-3.0400E-10	-1.068728E-10	-1.068728E-10	   20.0605	   21.6719	    6.5237	  -16.4577	
 -115.0000	-2.7300E-10	-2.7300E-10	-1.072183E-10	-1.072183E-10	   20.0605	   21.6727	    6.5218	  -16.4606	
 -120.0000	-1.8300E-10	-1.8300E-10	-1.077198E-10	-1.077198E-10	   20.0579	   21.6721	    6.5133	  -16.4766	
 -125.0000	-1.7800E-10	-1.7800E-10	-1.078634E-10	-1.078634E-10	   20.0579	   21.6773	    6.5139	  -16.4717	
 -130.0000	-3.0600E-10	-3.0600E-10	-1.084732E-10	-1.084732E-10	   20.0579	   21.6757	    6.5095	  -16.4810	
 -135.0000	-1.9400E-10	-1.9400E-10	-1.083556E-10	-1.083556E-10	   20.0605	   21.6743	    6.5120	  -16.4773	
 -140.0000	-1.9300E-10	-1.9300E-10	-1.090778E-10	-1.090778E-10	   20.0605	   21.6744	    6.5066	  -16.4871	
 -145.0000	-3.2100E-10	-3.2100E-10	-1.095155E-10	-1.095155E-10	   20.0579	   21.6700	    6.5095	  -16.4851	
 -150.0000	-3.5300E-10	-3.5300E-10	-1.094290E-10	-1.094290E-10	   20.0579	   21.6739	    6.5187	  -16.4655	
 -155.0000	-3.4900E-10	-3.4900E-10	-1.099114E-10	-1.099114E-10	   20.0605	   21.6695	    6.5114	  -16.4820	
 -160.0000	-2.2500E-10	-2.2500E-10	-1.103593E-10	-1.103593E-10	   20.0605	   21.6680	    6.5098	  -16.4860	
 -165.0000	-2.9300E-10	-2.9300E-10	-1.102316E-10	-1.102316E-10	   20.0605	   21.6767	    6.5063	  -16.4860	
 -170.0000	-2.7900E-10	-2.7900E-10	-1.108391E-10	-1.108391E-10	   20.0605	   21.6730	    6.5139	  -16.4748	
 -175.0000	-2.6100E-10	-2.6100E-10	-1.113131E-10	-1.113131E-10	   20.0605	   21.6759	    6.5079	  -16.4837	
 -180.0000	-2.9800E-10	-2.9800E-10	-1.110717E-10	-1.110717E-10	   20.0631	   21.6783	    6.5092	  -16.4796	
 -185.0000	-2.6000E-10	-2.6000E-10	-1.113821E-10	-1.113821E-10	   20.0631	   21.6737	    6.5070	  -16.4870	
 -190.0000	-2.9200E-10	-2.9200E-10	-1.117490E-10	-1.117490E-10	   20.0605	   21.6722	    6.5098	  -16.4829	
 -195.0000	-3.2700E-10	-3.2700E-10	-1.126712E-10	-1.126712E-10	   20.0605	   21.6749	    6.5117	  -16.4775	
 -200.0000	-2.9400E-10	-2.9400E-10	-1.124251E-10	-1.124251E-10	   20.0605	   21.6749	    6.4940	  -16.4775	
 -205.0000	-4.2700E-10	-4.2700E-10	-1.136500E-10	-1.136500E-10	   20.0605	   21.6731	    6.4940	  -16.5112	
 -210.0000	-3.6700E-10	-3.6700E-10	-1.135860E-10	-1.135860E-10	   20.0605	   21.6779	    6.5085	  -16.4811	
 -215.0000	-3.9300E-10	-3.9300E-10	-1.146130E-10	-1.146130E-10	   20.0605	   21.6779	    6.5133	  -16.4811	
 -220.0000	-3.2000E-10	-3.2000E-10	-1.154335E-10	-1.154335E-10	   20.0631	   21.6779	    6.5047	  -16.4724	
 -225.0000	-3.3200E-10	-3.3200E-10	-1.162924E-10	-1.162924E-10	   20.0605	   21.6773	    6.5025	  -16.4884	
 -230.0000	-4.4300E-10	-4.4300E-10	-1.172244E-10	-1.172244E-10	   20.0631	   21.6746	    6.4987	  -16.4945	
 -235.0000	-4.1200E-10	-4.1200E-10	-1.182222E-10	-1.182222E-10	   20.0605	   21.6714	    6.5111	  -16.5038	
 -240.0000	-3.8200E-10	-3.8200E-10	-1.194288E-10	-1.194288E-10	   20.0605	   21.6801	    6.5111	  -16.4748	
 -245.0000	-3.9900E-10	-3.9900E-10	-1.208910E-10	-1.208910E-10	   20.0631	   21.6781	    6.5066	  -16.4844	
 -250.0000	-4.4300E-10	-4.4300E-10	-1.226714E-10	-1.226714E-10	   20.0605	   21.6729	    6.5060	  -16.4894	
 -255.0000	-5.0700E-10	-5.0700E-10	-1.237239E-10	-1.237239E-10	   20.0605	   21.6742	    6.5060	  -16.4884	
 -260.0000	-5.1300E-10	-5.1300E-10	-1.254342E-10	-1.254342E-10	   20.0605	   21.6782	    6.5114	  -16.4756	
 -265.0000	-4.3600E-10	-4.3600E-10	-1.271748E-10	-1.271748E-10	   20.0631	   21.6770	    6.5032	  -16.4916	
 -270.0000	-4.2900E-10	-4.2900E-10	-1.280145E-10	-1.280145E-10	   20.0605	   21.6801	    6.5016	  -16.4922	
 -275.0000	-5.3100E-10	-5.3100E-10	-1.294851E-10	-1.294851E-10	   20.0631	   21.6801	    6.5114	  -16.4922	
 -280.0000	-4.7300E-10	-4.7300E-10	-1.307344E-10	-1.307344E-10	   20.0631	   21.6816	    6.5006	  -16.4732	
 -285.0000	-4.2500E-10	-4.2500E-10	-1.317361E-10	-1.317361E-10	   20.0631	   21.6795	    6.5066	  -16.4944	
 -290.0000	-4.3100E-10	-4.3100E-10	-1.330856E-10	-1.330856E-10	   20.0631	   21.6773	    6.5123	  -16.4850	
 -295.0000	-4.5900E-10	-4.5900E-10	-1.333444E-10	-1.333444E-10	   20.0631	   21.6788	    6.4949	  -16.4734	
 -300.0000	-5.3500E-10	-5.3500E-10	-1.345601E-10	-1.345601E-10	   20.0605	   21.6809	    6.5089	  -16.5038	
 -305.0000	-4.3400E-10	-4.3400E-10	-1.354526E-10	-1.354526E-10	   20.0605	   21.6739	    6.5089	  -16.4834	
 -310.0000	-4.5400E-10	-4.5400E-10	-1.360195E-10	-1.360195E-10	   20.0605	   21.6778	    6.5089	  -16.4806	
 -315.0000	-4.9100E-10	-4.9100E-10	-1.369971E-10	-1.369971E-10	   20.0631	   21.6758	    6.5073	  -16.4849	
 -320.0000	-4.4800E-10	-4.4800E-10	-1.375973E-10	-1.375973E-10	   20.0631	   21.6789	    6.5149	  -16.4687	
 -325.0000	-4.5400E-10	-4.5400E-10	-1.386716E-10	-1.386716E-10	   20.0605	   21.6774	    6.5123	  -16.4745	
 -330.0000	-4.6600E-10	-4.6600E-10	-1.392970E-10	-1.392970E-10	   20.0605	   21.6702	    6.5101	  -16.4838	
 -335.0000	-4.6600E-10	-4.6600E-10	-1.396020E-10	-1.396020E-10	   20.0605	   21.6738	    6.5085	  -16.4841	
 -340.0000	-6.0600E-10	-6.0600E-10	-1.404527E-10	-1.404527E-10	   20.0631	   21.6799	    6.5082	  -16.4802	
 -345.0000	-6.0800E-10	-6.0800E-10	-1.412665E-10	-1.412665E-10	   20.0605	   21.6754	    6.5082	  -16.4835	
 -350.0000	-6.0300E-10	-6.0300E-10	-1.416210E-10	-1.416210E-10	   20.0631	   21.6756	    6.5095	  -16.4810	
 -355.0000	-5.8000E-10	-5.8000E-10	-1.420575E-10	-1.420575E-10	   20.0631	   21.6791	    6.5326	  -16.4362	
 -360.0000	-5.1100E-10	-5.1100E-10	-1.425488E-10	-1.425488E-10	   20.0631	   21.6768	    6.5136	  -16.4726	
 -365.0000	-4.9800E-10	-4.9800E-10	-1.435158E-10	-1.435158E-10	   20.0605	   21.6753	    6.5168	  -16.4679	
 -370.0000	-6.2800E-10	-6.2800E-10	-1.437007E-10	-1.437007E-10	   20.0605	   21.6717	    6.5142	  -16.4752	
 -375.0000	-5.1100E-10	-5.1100E-10	-1.440677E-10	-1.440677E-10	   20.0631	   21.6740	    6.5221	  -16.4590	
 -380.0000	-6.1900E-10	-6.1900E-10	-1.443914E-10	-1.443914E-10	   20.0631	   21.6747	    6.5269	  -16.4498	
 -385.0000	-5.2100E-10	-5.2100E-10	-1.453316E-10	-1.453316E-10	   20.0631	   21.6731	    6.5259	  -16.4528	
 -390.0000	-6.3800E-10	-6.3800E-10	-1.456487E-10	-1.456487E-10	   20.0631	   21.6715	    6.5196	  -16.4655	
 -395.0000	-5.4300E-10	-5.4300E-10	-1.459099E-10	-1.459099E-10	   20.0631	   21.6724	    6.5196	  -16.4648	
 -400.0000	-5.3200E-10	-5.3200E-10	-1.468008E-10	-1.468008E-10	   20.0631	   21.6685	    6.5345	  -16.4405	
 -410.0000	-6.0500E-10	-6.0500E-10	-1.477681E-10	-1.477681E-10	   20.0631	   21.6686	    6.5199	  -16.4670	
 -420.0000	-7.5500E-10	-7.5500E-10	-1.484887E-10	-1.484887E-10	   20.0631	   21.6672	    6.5310	  -16.4478	
 -430.0000	-7.8800E-10	-7.8800E-10	-1.495739E-10	-1.495739E-10	   20.0605	   21.6685	    6.5361	  -16.4377	
 -440.0000	-7.1900E-10	-7.1900E-10	-1.503968E-10	-1.503968E-10	   20.0605	   21.6720	    6.5275	  -16.4506	
 -450.0000	-7.2700E-10	-7.2700E-10	-1.511652E-10	-1.511652E-10	   20.0631	   21.6718	    6.5351	  -16.4370	
 -460.0000	-7.2900E-10	-7.2900E-10	-1.520128E-10	-1.520128E-10	   20.0631	   21.6718	    6.5272	  -16.4370	
 -470.0000	-7.7600E-10	-7.7600E-10	-1.526879E-10	-1.526879E-10	   20.0631	   21.6684	    6.5272	  -16.4539	
 -480.0000	-8.1200E-10	-8.1200E-10	-1.537213E-10	-1.537213E-10	   20.0631	   21.6677	    6.5262	  -16.4561	
 -490.0000	-8.9500E-10	-8.9500E-10	-1.546923E-10	-1.546923E-10	   20.0631	   21.6677	    6.5262	  -16.4561	
 -500.0000	-8.4700E-10	-8.4700E-10	-1.546646E-10	-1.546646E-10	   20.0631	   21.6681	    6.5376	  -16.4350	
 -510.0000	-8.6400E-10	-8.6400E-10	-1.551702E-10	-1.551702E-10	   20.0631	   21.6681	    6.5259	  -16.4350	
 -520.0000	-8.7600E-10	-8.7600E-10	-1.560562E-10	-1.560562E-10	   20.0631	   21.6681	    6.5316	  -16.4564	
 -530.0000	-8.5500E-10	-8.5500E-10	-1.568388E-10	-1.568388E-10	   20.0631	   21.6632	    6.5354	  -16.4496	
 -540.0000	-8.9100E-10	-8.9100E-10	-1.571596E-10	-1.571596E-10	   20.0631	   21.6676	    6.5354	  -16.4395	
 -550.0000	-9.1500E-10	-9.1500E-10	-1.583463E-10	-1.583463E-10	   20.0631	   21.6647	    6.5430	  -16.4277	
 -560.0000	-8.8300E-10	-8.8300E-10	-1.586948E-10	-1.586948E-10	   20.0631	   21.6671	    6.5307	  -16.4485	
 -570.0000	-9.0900E-10	-9.0900E-10	-1.592174E-10	-1.592174E-10	   20.0631	   21.6640	    6.5351	  -16.4427	
 -580.0000	-9.5400E-10	-9.5400E-10	-1.600297E-10	-1.600297E-10	   20.0631	   21.6659	    6.5367	  -16.4384	
 -590.0000	-1.1220E-9	-1.1220E-9	-1.610423E-10	-1.610423E-10	   20.0605	   21.6654	    6.5326	  -16.4463	
 -600.0000	-9.3500E-10	-9.3500E-10	-1.613415E-10	-1.613415E-10	   20.0631	   21.6668	    6.5414	  -16.4291	
 -610.0000	-9.6900E-10	-9.6900E-10	-1.620706E-10	-1.620706E-10	   20.0631	   21.6660	    6.5455	  -16.4222	
 -620.0000	-9.9900E-10	-9.9900E-10	-1.623415E-10	-1.623415E-10	   20.0605	   21.6690	    6.5370	  -16.4356	
 -630.0000	-1.0150E-9	-1.0150E-9	-1.635508E-10	-1.635508E-10	   20.0605	   21.6662	    6.5436	  -16.4255	
 -640.0000	-1.0560E-9	-1.0560E-9	-1.636452E-10	-1.636452E-10	   20.0605	   21.6695	    6.5421	  -16.4259	
 -650.0000	-1.0450E-9	-1.0450E-9	-1.648434E-10	-1.648434E-10	   20.0605	   21.6695	    6.5421	  -16.4259	
 -660.0000	-1.1910E-9	-1.1910E-9	-1.652977E-10	-1.652977E-10	   20.0605	   21.6665	    6.5443	  -16.4241	
 -670.0000	-1.1080E-9	-1.1080E-9	-1.660734E-10	-1.660734E-10	   20.0631	   21.6665	    6.5443	  -16.4241	
 -680.0000	-1.0740E-9	-1.0740E-9	-1.665132E-10	-1.665132E-10	   20.0631	   21.6677	    6.5509	  -16.4082	
 -690.0000	-1.1050E-9	-1.1050E-9	-1.667886E-10	-1.667886E-10	   20.0605	   21.6677	    6.5512	  -16.4111	
 -700.0000	-1.0630E-9	-1.0630E-9	-1.677394E-10	-1.677394E-10	   20.0605	   21.6685	    6.5512	  -16.4100	
 -710.0000	-1.1070E-9	-1.1070E-9	-1.684182E-10	-1.684182E-10	   20.0631	   21.6684	    6.5585	  -16.3968	
 -720.0000	-1.1010E-9	-1.1010E-9	-1.690734E-10	-1.690734E-10	   20.0631	   21.6650	    6.5538	  -16.4079	
 -730.0000	-1.0800E-9	-1.0800E-9	-1.699621E-10	-1.699621E-10	   20.0605	   21.6609	    6.5633	  -16.3936	
 -740.0000	-1.1460E-9	-1.1460E-9	-1.706331E-10	-1.706331E-10	   20.0605	   21.6583	    6.5661	  -16.3904	
 -750.0000	-1.1490E-9	-1.1490E-9	-1.710121E-10	-1.710121E-10	   20.0605	   21.6652	    6.5727	  -16.3733	
 -760.0000	-1.1190E-9	-1.1190E-9	-1.721822E-10	-1.721822E-10	   20.0605	   21.6574	    6.5781	  -16.3692	
 -770.0000	-1.1900E-9	-1.1900E-9	-1.723268E-10	-1.723268E-10	   20.0605	   21.6598	    6.5787	  -16.3663	
 -780.0000	-1.1380E-9	-1.1380E-9	-1.732519E-10	-1.732519E-10	   20.0605	   21.6633	    6.5769	  -16.3672	
 -790.0000	-1.1520E-9	-1.1520E-9	-1.744372E-10	-1.744372E-10	   20.0605	   21.6667	    6.5759	  -16.3664	
 -800.0000	-1.2010E-9	-1.2010E-9	-1.749356E-10	-1.749356E-10	   20.0605	   21.6601	    6.5819	  -16.3603	
 -810.0000	-1.3500E-9	-1.3500E-9	-1.754819E-10	-1.754819E-10	   20.0605	   21.6601	    6.5819	  -16.3603	
 -820.0000	-1.3500E-9	-1.3500E-9	-1.767350E-10	-1.767350E-10	   20.0605	   21.6613	    6.5920	  -16.3480	
 -830.0000	-1.3320E-9	-1.3320E-9	-1.776649E-10	-1.776649E-10	   20.0605	   21.6613	    6.5961	  -16.3412	
 -840.0000	-1.2660E-9	-1.2660E-9	-1.784639E-10	-1.784639E-10	   20.0605	   21.6617	    6.5933	  -16.3334	
 -850.0000	-1.2570E-9	-1.2570E-9	-1.798920E-10	-1.798920E-10	   20.0605	   21.6617	    6.5933	  -16.3386	
 -860.0000	-1.2670E-9	-1.2670E-9	-1.805209E-10	-1.805209E-10	   20.0605	   21.6604	    6.6082	  -16.3126	
 -870.0000	-1.2760E-9	-1.2760E-9	-1.815595E-10	-1.815595E-10	   20.0605	   21.6617	    6.6082	  -16.3117	
 -880.0000	-1.2850E-9	-1.2850E-9	-1.832761E-10	-1.832761E-10	   20.0579	   21.6596	    6.6078	  -16.3138	
 -890.0000	-1.3390E-9	-1.3390E-9	-1.846938E-10	-1.846938E-10	   20.0605	   21.6622	    6.6040	  -16.3187	
 -900.0000	-1.4620E-9	-1.4620E-9	-1.861789E-10	-1.861789E-10	   20.0605	   21.6583	    6.6101	  -16.3107	
 -910.0000	-1.3490E-9	-1.3490E-9	-1.872167E-10	-1.872167E-10	   20.0579	   21.6587	    6.6161	  -16.2996	
 -920.0000	-1.3500E-9	-1.3500E-9	-1.889748E-10	-1.889748E-10	   20.0605	   21.6616	    6.6157	  -16.2980	
 -930.0000	-1.3680E-9	-1.3680E-9	-1.900732E-10	-1.900732E-10	   20.0605	   21.6596	    6.6173	  -16.2967	
 -940.0000	-1.3750E-9	-1.3750E-9	-1.921439E-10	-1.921439E-10	   20.0579	   21.6590	    6.6101	  -16.3102	
 -950.0000	-1.4020E-9	-1.4020E-9	-1.939644E-10	-1.939644E-10	   20.0579	   21.6603	    6.6214	  -16.2887	
 -960.0000	-1.3990E-9	-1.3990E-9	-1.961396E-10	-1.961396E-10	   20.0579	   21.6524	    6.6126	  -16.3104	
 -970.0000	-1.4160E-9	-1.4160E-9	-1.981694E-10	-1.981694E-10	   20.0605	   21.6588	    6.6214	  -16.2898	
 -980.0000	-1.4250E-9	-1.4250E-9	-1.999232E-10	-1.999232E-10	   20.0605	   21.6609	    6.6237	  -16.2843	
 -990.0000	-1.4250E-9	-1.4250E-9	-2.027072E-10	-2.027072E-10	   20.0579	   21.6585	    6.6256	  -16.2826	
-1000.0000	-1.5340E-9	-1.5340E-9	-2.048537E-10	-2.048537E-10	   20.0579	   21.6580	    6.6243	  -16.2852	
