GCD Test
Bias: 5000.000000
IV_34330_048_2-S_HM_XX_DIODEHALFPSTOP
Date/Time: 9/10/2021 10:31:45 AM
Sensor Name: DIODEHALFPSTOP
Type: P
Annealing Status: Not Irradiated and Not Annealed
Environment: 20C
Tester: Andrew Kent

Time Delay per Ramp Step (s): 0.500

CV Time Delay per Measurement (s) :0.500

AC Voltage (V): 0.500

Current Number of measurements per voltage: 1.000

IV Time Delay per Measurement (s) :0.000


BiasVoltage	Total Current_Avg	Total Current_0	Bias Current_Avg	Bias Current_0	Temperature	Air_Temp	Humidity	Dewpoint	
   -5.0000	5.0000E-10	5.0000E-10	-4.371101E-11	-4.371101E-11	   19.9833	   22.0186	    8.3536	  -13.2104	
  -10.0000	4.0200E-10	4.0200E-10	-4.642043E-11	-4.642043E-11	   19.9910	   22.0183	    8.3406	  -13.2298	
  -15.0000	2.5100E-10	2.5100E-10	-4.897403E-11	-4.897403E-11	   20.0064	   22.0183	    8.3355	  -13.2298	
  -20.0000	2.5300E-10	2.5300E-10	-5.440799E-11	-5.440799E-11	   20.0064	   22.0148	    8.3355	  -13.2398	
  -25.0000	1.3600E-10	1.3600E-10	-5.661689E-11	-5.661689E-11	   20.0142	   22.0129	    8.3318	  -13.2468	
  -30.0000	8.2000E-11	8.2000E-11	-5.847560E-11	-5.847560E-11	   20.0219	   22.0190	    8.3295	  -13.2455	
  -35.0000	1.6600E-10	1.6600E-10	-6.023084E-11	-6.023084E-11	   20.0270	   22.0169	    8.3289	  -13.2480	
  -40.0000	3.1000E-11	3.1000E-11	-6.223502E-11	-6.223502E-11	   20.0270	   22.0130	    8.3238	  -13.2584	
  -45.0000	6.8000E-11	6.8000E-11	-6.337356E-11	-6.337356E-11	   20.0219	   22.0165	    8.3207	  -13.2605	
  -50.0000	2.9000E-11	2.9000E-11	-6.574504E-11	-6.574504E-11	   20.0167	   22.0112	    8.3219	  -13.2625	
  -55.0000	-7.6000E-11	-7.6000E-11	-6.751084E-11	-6.751084E-11	   20.0039	   22.0155	    8.3131	  -13.2724	
  -60.0000	-5.0000E-11	-5.0000E-11	-6.882074E-11	-6.882074E-11	   19.9936	   22.0181	    8.3106	  -13.2742	
  -65.0000	-4.8000E-11	-4.8000E-11	-7.097140E-11	-7.097140E-11	   19.9833	   22.0166	    8.3096	  -13.2767	
  -70.0000	-8.1000E-11	-8.1000E-11	-7.225052E-11	-7.225052E-11	   19.9730	   22.0136	    8.2966	  -13.2981	
  -75.0000	-1.8800E-10	-1.8800E-10	-7.358140E-11	-7.358140E-11	   19.9678	   22.0113	    8.3001	  -13.2947	
  -80.0000	-1.6000E-10	-1.6000E-10	-7.462931E-11	-7.462931E-11	   19.9678	   22.0103	    8.3014	  -13.2936	
  -85.0000	-2.3400E-10	-2.3400E-10	-7.536247E-11	-7.536247E-11	   19.9704	   22.0128	    8.3011	  -13.2921	
  -90.0000	-1.6600E-10	-1.6600E-10	-7.658661E-11	-7.658661E-11	   19.9755	   22.0155	    8.2932	  -13.3018	
  -95.0000	-2.7200E-10	-2.7200E-10	-7.683271E-11	-7.683271E-11	   19.9833	   22.0153	    8.2919	  -13.3039	
 -100.0000	-1.6700E-10	-1.6700E-10	-7.716110E-11	-7.716110E-11	   19.9961	   22.0117	    8.2881	  -13.3121	
 -105.0000	-2.8700E-10	-2.8700E-10	-7.813689E-11	-7.813689E-11	   20.0064	   22.0120	    8.2900	  -13.3091	
 -110.0000	-2.5000E-10	-2.5000E-10	-7.842573E-11	-7.842573E-11	   20.0142	   22.0114	    8.2837	  -13.3189	
 -115.0000	-3.0800E-10	-3.0800E-10	-7.931719E-11	-7.931719E-11	   20.0219	   22.0167	    8.2815	  -13.3183	
 -120.0000	-2.9300E-10	-2.9300E-10	-7.947386E-11	-7.947386E-11	   20.0245	   22.0147	    8.2875	  -13.3108	
 -125.0000	-3.3700E-10	-3.3700E-10	-8.006018E-11	-8.006018E-11	   20.0245	   22.0121	    8.2796	  -13.3245	
 -130.0000	-3.1100E-10	-3.1100E-10	-8.099889E-11	-8.099889E-11	   20.0193	   22.0108	    8.2717	  -13.3371	
 -135.0000	-3.9100E-10	-3.9100E-10	-8.119017E-11	-8.119017E-11	   20.0142	   22.0093	    8.2751	  -13.3331	
 -140.0000	-4.0100E-10	-4.0100E-10	-8.186670E-11	-8.186670E-11	   20.0039	   22.0129	    8.2672	  -13.3422	
 -145.0000	-4.1800E-10	-4.1800E-10	-8.213764E-11	-8.213764E-11	   19.9910	   22.0117	    8.2672	  -13.3430	
 -150.0000	-3.2000E-10	-3.2000E-10	-8.227168E-11	-8.227168E-11	   19.9730	   22.0117	    8.2552	  -13.3430	
 -155.0000	-4.5600E-10	-4.5600E-10	-8.279504E-11	-8.279504E-11	   19.9730	   22.0119	    8.2552	  -13.3607	
 -160.0000	-3.9700E-10	-3.9700E-10	-8.343676E-11	-8.343676E-11	   19.9653	   22.0087	    8.2502	  -13.3706	
 -165.0000	-4.3000E-10	-4.3000E-10	-8.368770E-11	-8.368770E-11	   19.9653	   22.0087	    8.2470	  -13.3706	
 -170.0000	-4.8100E-10	-4.8100E-10	-8.392560E-11	-8.392560E-11	   19.9730	   22.0082	    8.2470	  -13.3757	
 -175.0000	-4.9600E-10	-4.9600E-10	-8.447096E-11	-8.447096E-11	   19.9807	   22.0021	    8.2416	  -13.3732	
 -180.0000	-4.1400E-10	-4.1400E-10	-8.490018E-11	-8.490018E-11	   19.9910	   22.0021	    8.2423	  -13.3883	
 -185.0000	-5.3500E-10	-5.3500E-10	-8.500366E-11	-8.500366E-11	   20.0013	   22.0040	    8.2334	  -13.3860	
 -190.0000	-5.1400E-10	-5.1400E-10	-8.545815E-11	-8.545815E-11	   20.0013	   22.0068	    8.2334	  -13.3970	
 -195.0000	-4.7300E-10	-4.7300E-10	-8.595239E-11	-8.595239E-11	   20.0116	   22.0062	    8.2318	  -13.3998	
 -200.0000	-5.7200E-10	-5.7200E-10	-8.621007E-11	-8.621007E-11	   20.0167	   22.0083	    8.2264	  -13.4063	
 -205.0000	-5.3600E-10	-5.3600E-10	-8.654071E-11	-8.654071E-11	   20.0193	   22.0105	    8.2312	  -13.3975	
 -210.0000	-4.9600E-10	-4.9600E-10	-8.640056E-11	-8.640056E-11	   20.0193	   22.0059	    8.2271	  -13.4071	
 -215.0000	-4.9900E-10	-4.9900E-10	-8.677518E-11	-8.677518E-11	   20.0167	   22.0104	    8.2264	  -13.4047	
 -220.0000	-5.7400E-10	-5.7400E-10	-8.667616E-11	-8.667616E-11	   20.0116	   22.0023	    8.2280	  -13.4083	
 -225.0000	-6.3000E-10	-6.3000E-10	-8.714024E-11	-8.714024E-11	   20.0013	   22.0064	    8.2287	  -13.4044	
 -230.0000	-6.2400E-10	-6.2400E-10	-8.728809E-11	-8.728809E-11	   19.9910	   22.0050	    8.2283	  -13.4059	
 -235.0000	-5.5400E-10	-5.5400E-10	-8.791372E-11	-8.791372E-11	   19.9833	   22.0037	    8.2214	  -13.4172	
 -240.0000	-6.3800E-10	-6.3800E-10	-8.817713E-11	-8.817713E-11	   19.9755	   22.0046	    8.2100	  -13.4335	
 -245.0000	-6.1800E-10	-6.1800E-10	-8.840711E-11	-8.840711E-11	   19.9704	   22.0072	    8.2097	  -13.4321	
 -250.0000	-5.8300E-10	-5.8300E-10	-8.866849E-11	-8.866849E-11	   19.9678	   22.0053	    8.2195	  -13.4188	
 -255.0000	-6.1500E-10	-6.1500E-10	-8.911767E-11	-8.911767E-11	   19.9704	   22.0005	    8.2068	  -13.4413	
 -260.0000	-6.6200E-10	-6.6200E-10	-8.925235E-11	-8.925235E-11	   19.9781	   22.0005	    8.2034	  -13.4465	
 -265.0000	-6.3900E-10	-6.3900E-10	-8.991483E-11	-8.991483E-11	   19.9884	   21.9978	    8.2075	  -13.4424	
 -270.0000	-6.2900E-10	-6.2900E-10	-9.028131E-11	-9.028131E-11	   19.9987	   21.9971	    8.1989	  -13.4556	
 -275.0000	-6.9500E-10	-6.9500E-10	-9.079917E-11	-9.079917E-11	   20.0064	   22.0007	    8.2040	  -13.4454	
 -280.0000	-6.5100E-10	-6.5100E-10	-9.152253E-11	-9.152253E-11	   20.0167	   21.9965	    8.1901	  -13.4693	
 -285.0000	-6.5800E-10	-6.5800E-10	-9.176735E-11	-9.176735E-11	   20.0219	   21.9988	    8.1787	  -13.4846	
 -290.0000	-7.2400E-10	-7.2400E-10	-9.178816E-11	-9.178816E-11	   20.0219	   21.9995	    8.1847	  -13.4751	
 -295.0000	-7.1200E-10	-7.1200E-10	-9.211171E-11	-9.211171E-11	   20.0219	   22.0017	    8.1790	  -13.4820	
 -300.0000	-7.4600E-10	-7.4600E-10	-9.199391E-11	-9.199391E-11	   20.0167	   21.9957	    8.1831	  -13.4804	
 -305.0000	-7.0200E-10	-7.0200E-10	-9.218540E-11	-9.218540E-11	   19.9987	   21.9957	    8.1907	  -13.4804	
 -310.0000	-7.8300E-10	-7.8300E-10	-9.235712E-11	-9.235712E-11	   19.9987	   22.0001	    8.1907	  -13.4657	
 -315.0000	-7.6900E-10	-7.6900E-10	-9.238909E-11	-9.238909E-11	   19.9884	   21.9933	    8.1822	  -13.4836	
 -320.0000	-8.4300E-10	-8.4300E-10	-9.297498E-11	-9.297498E-11	   19.9781	   21.9964	    8.1847	  -13.4775	
 -325.0000	-8.6300E-10	-8.6300E-10	-9.313449E-11	-9.313449E-11	   19.9704	   21.9921	    8.1837	  -13.4821	
 -330.0000	-8.7900E-10	-8.7900E-10	-9.332705E-11	-9.332705E-11	   19.9653	   21.9927	    8.1882	  -13.4750	
 -335.0000	-8.8100E-10	-8.8100E-10	-9.403266E-11	-9.403266E-11	   19.9653	   21.9927	    8.1882	  -13.4750	
 -340.0000	-7.7900E-10	-7.7900E-10	-9.423639E-11	-9.423639E-11	   19.9730	   21.9933	    8.1948	  -13.4646	
 -345.0000	-8.2500E-10	-8.2500E-10	-9.460285E-11	-9.460285E-11	   19.9781	   21.9903	    8.1787	  -13.4910	
 -350.0000	-9.0700E-10	-9.0700E-10	-9.489115E-11	-9.489115E-11	   19.9987	   21.9903	    8.1809	  -13.4910	
 -355.0000	-8.5600E-10	-8.5600E-10	-9.501780E-11	-9.501780E-11	   20.0090	   21.9926	    8.1809	  -13.4859	
 -360.0000	-8.9800E-10	-8.9800E-10	-9.529365E-11	-9.529365E-11	   20.0193	   21.9920	    8.1762	  -13.4978	
 -365.0000	-9.3700E-10	-9.3700E-10	-9.602012E-11	-9.602012E-11	   20.0245	   21.9920	    8.1619	  -13.4935	
 -370.0000	-9.6300E-10	-9.6300E-10	-9.591315E-11	-9.591315E-11	   20.0219	   21.9903	    8.1600	  -13.5161	
 -375.0000	-8.8200E-10	-8.8200E-10	-9.602885E-11	-9.602885E-11	   20.0193	   21.9892	    8.1505	  -13.5197	
 -380.0000	-9.7600E-10	-9.7600E-10	-9.616800E-11	-9.616800E-11	   20.0116	   21.9830	    8.1483	  -13.5386	
 -385.0000	-9.6900E-10	-9.6900E-10	-9.566912E-11	-9.566912E-11	   20.0013	   21.9886	    8.1531	  -13.5378	
 -390.0000	-9.6000E-10	-9.6000E-10	-9.585736E-11	-9.585736E-11	   20.0013	   21.9806	    8.1531	  -13.5366	
 -395.0000	-9.0000E-10	-9.0000E-10	-9.590116E-11	-9.590116E-11	   19.9884	   21.9755	    8.1407	  -13.5590	
 -400.0000	-9.9000E-10	-9.9000E-10	-9.597485E-11	-9.597485E-11	   19.9781	   21.9810	    8.1388	  -13.5577	
 -410.0000	-1.0870E-9	-1.0870E-9	-9.617571E-11	-9.617571E-11	   19.9704	   21.9851	    8.1306	  -13.5670	
 -420.0000	-1.0730E-9	-1.0730E-9	-9.709122E-11	-9.709122E-11	   19.9653	   21.9848	    8.1385	  -13.5554	
 -430.0000	-1.1160E-9	-1.1160E-9	-9.743711E-11	-9.743711E-11	   19.9653	   21.9810	    8.1338	  -13.5653	
 -440.0000	-1.1110E-9	-1.1110E-9	-9.772049E-11	-9.772049E-11	   19.9704	   21.9868	    8.1347	  -13.5596	
 -450.0000	-1.2630E-9	-1.2630E-9	-9.811772E-11	-9.811772E-11	   19.9781	   21.9881	    8.1388	  -13.5524	
 -460.0000	-1.2060E-9	-1.2060E-9	-9.863437E-11	-9.863437E-11	   19.9884	   21.9861	    8.1331	  -13.5625	
 -470.0000	-1.2680E-9	-1.2680E-9	-9.924164E-11	-9.924164E-11	   20.0013	   21.9882	    8.1414	  -13.5485	
 -480.0000	-1.2760E-9	-1.2760E-9	-9.967188E-11	-9.967188E-11	   20.0090	   21.9878	    8.1417	  -13.5484	
 -490.0000	-1.2720E-9	-1.2720E-9	-9.979183E-11	-9.979183E-11	   20.0167	   21.9881	    8.1426	  -13.5468	
 -500.0000	-1.2960E-9	-1.2960E-9	-9.983929E-11	-9.983929E-11	   20.0219	   21.9839	    8.1303	  -13.5684	
 -510.0000	-1.3630E-9	-1.3630E-9	-9.997680E-11	-9.997680E-11	   20.0219	   21.9850	    8.1300	  -13.5681	
 -520.0000	-1.3960E-9	-1.3960E-9	-1.002514E-10	-1.002514E-10	   20.0142	   21.9850	    8.1230	  -13.5681	
 -530.0000	-1.4020E-9	-1.4020E-9	-1.003011E-10	-1.003011E-10	   20.0142	   21.9808	    8.1230	  -13.5817	
 -540.0000	-1.4940E-9	-1.4940E-9	-1.006055E-10	-1.006055E-10	   19.9987	   21.9831	    8.1151	  -13.5919	
 -550.0000	-1.4730E-9	-1.4730E-9	-1.007293E-10	-1.007293E-10	   19.9884	   21.9831	    8.1129	  -13.5919	
 -560.0000	-1.4820E-9	-1.4820E-9	-1.006912E-10	-1.006912E-10	   19.9884	   21.9846	    8.1129	  -13.5941	
 -570.0000	-1.5330E-9	-1.5330E-9	-1.011149E-10	-1.011149E-10	   19.9781	   21.9834	    8.1097	  -13.5998	
 -580.0000	-1.5710E-9	-1.5710E-9	-1.013429E-10	-1.013429E-10	   19.9704	   21.9776	    8.1072	  -13.6079	
 -590.0000	-1.7550E-9	-1.7550E-9	-1.021555E-10	-1.021555E-10	   19.9678	   21.9753	    8.0946	  -13.6287	
 -600.0000	-1.7130E-9	-1.7130E-9	-1.020221E-10	-1.020221E-10	   19.9704	   21.9753	    8.0942	  -13.6287	
 -610.0000	-1.7050E-9	-1.7050E-9	-1.025216E-10	-1.025216E-10	   19.9704	   21.9746	    8.0942	  -13.6297	
 -620.0000	-1.7580E-9	-1.7580E-9	-1.030639E-10	-1.030639E-10	   19.9755	   21.9705	    8.0911	  -13.6375	
 -630.0000	-1.7660E-9	-1.7660E-9	-1.035738E-10	-1.035738E-10	   19.9884	   21.9705	    8.0955	  -13.6375	
 -640.0000	-1.7800E-9	-1.7800E-9	-1.043846E-10	-1.043846E-10	   19.9884	   21.9730	    8.0955	  -13.6290	
 -650.0000	-1.7780E-9	-1.7780E-9	-1.043316E-10	-1.043316E-10	   19.9987	   21.9723	    8.0886	  -13.6400	
 -660.0000	-1.8830E-9	-1.8830E-9	-1.040390E-10	-1.040390E-10	   20.0142	   21.9723	    8.0857	  -13.6400	
 -670.0000	-1.8800E-9	-1.8800E-9	-1.051587E-10	-1.051587E-10	   20.0142	   21.9719	    8.0857	  -13.6446	
 -680.0000	-2.0340E-9	-2.0340E-9	-1.053045E-10	-1.053045E-10	   20.0193	   21.9753	    8.0892	  -13.6368	
 -690.0000	-1.9180E-9	-1.9180E-9	-1.054530E-10	-1.054530E-10	   20.0245	   21.9753	    8.0727	  -13.6368	
 -700.0000	-1.9350E-9	-1.9350E-9	-1.060365E-10	-1.060365E-10	   20.0245	   21.9753	    8.0727	  -13.6617	
 -710.0000	-1.9240E-9	-1.9240E-9	-1.062257E-10	-1.062257E-10	   20.0245	   21.9749	    8.0832	  -13.6462	
 -720.0000	-1.9400E-9	-1.9400E-9	-1.067389E-10	-1.067389E-10	   20.0219	   21.9749	    8.0889	  -13.6376	
 -730.0000	-2.0140E-9	-2.0140E-9	-1.067827E-10	-1.067827E-10	   20.0167	   21.9800	    8.0838	  -13.6414	
 -740.0000	-2.0390E-9	-2.0390E-9	-1.068814E-10	-1.068814E-10	   20.0039	   21.9800	    8.0772	  -13.6414	
 -750.0000	-2.0430E-9	-2.0430E-9	-1.074182E-10	-1.074182E-10	   20.0039	   21.9747	    8.0772	  -13.6554	
 -760.0000	-2.1350E-9	-2.1350E-9	-1.073954E-10	-1.073954E-10	   19.9910	   21.9732	    8.0670	  -13.6719	
 -770.0000	-2.0890E-9	-2.0890E-9	-1.077947E-10	-1.077947E-10	   19.9755	   21.9732	    8.0718	  -13.6719	
 -780.0000	-2.1900E-9	-2.1900E-9	-1.086450E-10	-1.086450E-10	   19.9755	   21.9722	    8.0718	  -13.6655	
 -790.0000	-2.2740E-9	-2.2740E-9	-1.088263E-10	-1.088263E-10	   19.9653	   21.9722	    8.0718	  -13.6655	
 -800.0000	-2.1730E-9	-2.1730E-9	-1.092451E-10	-1.092451E-10	   19.9653	   21.9669	    8.0718	  -13.6694	
 -810.0000	-2.3710E-9	-2.3710E-9	-1.099909E-10	-1.099909E-10	   19.9627	   21.9680	    8.0601	  -13.6863	
 -820.0000	-2.2590E-9	-2.2590E-9	-1.106889E-10	-1.106889E-10	   19.9653	   21.9680	    8.0629	  -13.6863	
 -830.0000	-2.2870E-9	-2.2870E-9	-1.112401E-10	-1.112401E-10	   19.9653	   21.9680	    8.0629	  -13.6820	
 -840.0000	-2.3240E-9	-2.3240E-9	-1.120643E-10	-1.120643E-10	   19.9730	   21.9675	    8.0705	  -13.6709	
 -850.0000	-2.3300E-9	-2.3300E-9	-1.125388E-10	-1.125388E-10	   19.9781	   21.9645	    8.0708	  -13.6726	
 -860.0000	-2.3700E-9	-2.3700E-9	-1.131332E-10	-1.131332E-10	   19.9910	   21.9645	    8.0689	  -13.6726	
 -870.0000	-2.4030E-9	-2.4030E-9	-1.143518E-10	-1.143518E-10	   19.9910	   21.9695	    8.0689	  -13.6718	
 -880.0000	-2.4990E-9	-2.4990E-9	-1.148709E-10	-1.148709E-10	   20.0039	   21.9704	    8.0642	  -13.6783	
 -890.0000	-2.4130E-9	-2.4130E-9	-1.157448E-10	-1.157448E-10	   20.0167	   21.9704	    8.0696	  -13.6783	
 -900.0000	-2.4440E-9	-2.4440E-9	-1.166330E-10	-1.166330E-10	   20.0167	   21.9704	    8.0696	  -13.6701	
 -910.0000	-2.4420E-9	-2.4420E-9	-1.172448E-10	-1.172448E-10	   20.0219	   21.9669	    8.0648	  -13.6799	
 -920.0000	-2.5060E-9	-2.5060E-9	-1.185064E-10	-1.185064E-10	   20.0219	   21.9669	    8.0617	  -13.6799	
 -930.0000	-2.5470E-9	-2.5470E-9	-1.192671E-10	-1.192671E-10	   20.0219	   21.9675	    8.0617	  -13.6843	
 -940.0000	-2.5650E-9	-2.5650E-9	-1.198420E-10	-1.198420E-10	   20.0193	   21.9707	    8.0636	  -13.6790	
 -950.0000	-2.5710E-9	-2.5710E-9	-1.208740E-10	-1.208740E-10	   20.0167	   21.9681	    8.0572	  -13.6906	
 -960.0000	-2.5950E-9	-2.5950E-9	-1.213906E-10	-1.213906E-10	   20.0064	   21.9637	    8.0506	  -13.7039	
 -970.0000	-2.5760E-9	-2.5760E-9	-1.229737E-10	-1.229737E-10	   19.9936	   21.9637	    8.0468	  -13.7039	
 -980.0000	-2.6450E-9	-2.6450E-9	-1.246977E-10	-1.246977E-10	   19.9936	   21.9633	    8.0468	  -13.7099	
 -990.0000	-2.6780E-9	-2.6780E-9	-1.252732E-10	-1.252732E-10	   19.9730	   21.9633	    8.0433	  -13.7099	
-1000.0000	-2.6250E-9	-2.6250E-9	-1.276858E-10	-1.276858E-10	   19.9730	   21.9628	    8.0433	  -13.7156	
