38874_049_2-S_HM_XX_Unirrad
Date/Time: 3/7/2022 12:21:37 PM
Sensor Name: 38874_049_2-S_HM_XX
Station: Tesla 2
Annealing Status: Not Irradiated
Environment: 23.5C
Tester: Eric Spencer
Notes: Cleaved at Brown

Time Delay per Ramp Step (s): 0.500

CV Time Delay per Measurement (s) :0.500

AC Voltage (V): 0.500

Current Number of measurements per voltage: 4.000

IV Time Delay per Measurement (s) :0.500


BiasVoltage	LCR_Cp_freq1	LCR_G_freq1	Temperature	Air_Temp	Humidity	Dewpoint	
   -5.0000	3.622E-10	1.436E-7	   24.6120	   26.6936	    3.4720	    0.0000	
  -10.0000	2.523E-10	4.554E-8	   24.6120	   26.6936	    3.4720	    0.0000	
  -15.0000	2.060E-10	4.293E-8	   24.6120	   26.6936	    3.4720	    0.0000	
  -20.0000	1.757E-10	4.553E-8	   24.6120	   26.6936	    3.4720	    0.0000	
  -25.0000	1.546E-10	2.900E-8	   24.6120	   26.6936	    3.4720	    0.0000	
  -30.0000	1.386E-10	3.504E-8	   24.6120	   26.6936	    3.4720	    0.0000	
  -35.0000	1.287E-10	3.222E-8	   24.6120	   26.6936	    3.4720	    0.0000	
  -40.0000	1.197E-10	4.059E-8	   24.6120	   26.6936	    3.4720	    0.0000	
  -45.0000	1.133E-10	4.015E-8	   24.6120	   26.6936	    3.4720	    0.0000	
  -50.0000	1.047E-10	2.496E-8	   24.6120	   26.6936	    3.4720	    0.0000	
  -55.0000	1.002E-10	2.986E-8	   24.6120	   26.6936	    3.4720	    0.0000	
  -60.0000	9.648E-11	2.218E-8	   24.6120	   26.6936	    3.4720	    0.0000	
  -65.0000	9.298E-11	2.881E-8	   24.6120	   26.6936	    3.4720	    0.0000	
  -70.0000	8.983E-11	2.505E-8	   24.6120	   26.6936	    3.4720	    0.0000	
  -75.0000	8.551E-11	3.557E-8	   24.6120	   26.6936	    3.4720	    0.0000	
  -80.0000	8.080E-11	3.383E-8	   24.6120	   26.6936	    3.4720	    0.0000	
  -85.0000	7.725E-11	3.734E-8	   24.6120	   26.6936	    3.4720	    0.0000	
  -90.0000	7.483E-11	3.208E-8	   24.6120	   26.6936	    3.4720	    0.0000	
  -95.0000	7.353E-11	2.920E-8	   24.6120	   26.6936	    3.4720	    0.0000	
 -100.0000	7.235E-11	2.789E-8	   24.6120	   26.6936	    3.4720	    0.0000	
 -105.0000	6.926E-11	2.801E-8	   24.6120	   26.6936	    3.4720	    0.0000	
 -110.0000	6.785E-11	2.655E-8	   24.6120	   26.6936	    3.4720	    0.0000	
 -115.0000	6.715E-11	3.240E-8	   24.6120	   26.6936	    3.4720	    0.0000	
 -120.0000	6.686E-11	2.307E-8	   24.6120	   26.6936	    3.4720	    0.0000	
 -125.0000	6.472E-11	2.290E-8	   24.6120	   26.6936	    3.4720	    0.0000	
 -130.0000	6.351E-11	2.111E-8	   24.6120	   26.6936	    3.4720	    0.0000	
 -135.0000	6.136E-11	2.883E-8	   24.6120	   26.6936	    3.4720	    0.0000	
 -140.0000	6.023E-11	1.894E-8	   24.6120	   26.6936	    3.4720	    0.0000	
 -145.0000	5.991E-11	2.941E-8	   24.6120	   26.6936	    3.4720	    0.0000	
 -150.0000	5.960E-11	2.267E-8	   24.6120	   26.6936	    3.4720	    0.0000	
 -155.0000	5.879E-11	3.288E-8	   24.6120	   26.6936	    3.4720	    0.0000	
 -160.0000	5.754E-11	2.446E-8	   24.6120	   26.6936	    3.4720	    0.0000	
 -165.0000	5.721E-11	2.296E-8	   24.6120	   26.6936	    3.4720	    0.0000	
 -170.0000	5.627E-11	2.170E-8	   24.6120	   26.6936	    3.4720	    0.0000	
 -175.0000	5.522E-11	2.373E-8	   24.6120	   26.6936	    3.4720	    0.0000	
 -180.0000	5.407E-11	1.957E-8	   24.6120	   26.6936	    3.4720	    0.0000	
 -185.0000	5.342E-11	2.126E-8	   24.6120	   26.6936	    3.4720	    0.0000	
 -190.0000	5.337E-11	1.993E-8	   24.6120	   26.6936	    3.4720	    0.0000	
 -195.0000	5.182E-11	2.175E-8	   24.6120	   26.6936	    3.4720	    0.0000	
 -200.0000	5.146E-11	2.969E-8	   24.6120	   26.6936	    3.4720	    0.0000	
 -205.0000	4.995E-11	1.981E-8	   24.6120	   26.6936	    3.4720	    0.0000	
 -210.0000	5.110E-11	2.569E-8	   24.6120	   26.6936	    3.4720	    0.0000	
 -215.0000	5.108E-11	2.598E-8	   24.6120	   26.6936	    3.4720	    0.0000	
 -220.0000	4.950E-11	2.030E-8	   24.6120	   26.6936	    3.4720	    0.0000	
 -225.0000	5.094E-11	2.318E-8	   24.6120	   26.6936	    3.4720	    0.0000	
 -230.0000	5.026E-11	2.115E-8	   24.6120	   26.6936	    3.4720	    0.0000	
 -235.0000	5.098E-11	2.619E-8	   24.6120	   26.6936	    3.4720	    0.0000	
 -240.0000	5.061E-11	3.445E-8	   24.6120	   26.6936	    3.4720	    0.0000	
 -245.0000	5.056E-11	2.156E-8	   24.6120	   26.6936	    3.4720	    0.0000	
 -250.0000	5.025E-11	2.740E-8	   24.6120	   26.6936	    3.4720	    0.0000	
 -255.0000	4.897E-11	2.257E-8	   24.6120	   26.6936	    3.4720	    0.0000	
 -260.0000	5.051E-11	2.255E-8	   24.6120	   26.6936	    3.4720	    0.0000	
 -265.0000	5.035E-11	2.678E-8	   24.6120	   26.6936	    3.4720	    0.0000	
 -270.0000	5.039E-11	2.453E-8	   24.6120	   26.6936	    3.4720	    0.0000	
 -275.0000	4.978E-11	2.455E-8	   24.6120	   26.6936	    3.4720	    0.0000	
 -280.0000	5.058E-11	2.818E-8	   24.6120	   26.6936	    3.4720	    0.0000	
 -285.0000	5.042E-11	2.385E-8	   24.6120	   26.6936	    3.4720	    0.0000	
 -290.0000	4.967E-11	2.375E-8	   24.6120	   26.6936	    3.4720	    0.0000	
 -295.0000	4.928E-11	2.194E-8	   24.6120	   26.6936	    3.4720	    0.0000	
 -300.0000	4.947E-11	2.252E-8	   24.6120	   26.6936	    3.4720	    0.0000	
 -305.0000	5.175E-11	1.997E-8	   24.6120	   26.6936	    3.4720	    0.0000	
 -310.0000	4.923E-11	2.200E-8	   24.6120	   26.6936	    3.4720	    0.0000	
 -315.0000	5.230E-11	3.191E-8	   24.6120	   26.6936	    3.4720	    0.0000	
 -320.0000	5.042E-11	1.910E-8	   24.6120	   26.6936	    3.4720	    0.0000	
 -325.0000	4.993E-11	2.277E-8	   24.6120	   26.6936	    3.4720	    0.0000	
 -330.0000	4.999E-11	2.364E-8	   24.6120	   26.6936	    3.4720	    0.0000	
 -335.0000	5.326E-11	3.950E-9	   24.6120	   26.6936	    3.4720	    0.0000	
 -340.0000	4.968E-11	2.407E-8	   24.6120	   26.6936	    3.4720	    0.0000	
 -345.0000	4.938E-11	3.115E-8	   24.6120	   26.6936	    3.4720	    0.0000	
 -350.0000	4.941E-11	2.800E-8	   24.6120	   26.6936	    3.4720	    0.0000	
 -355.0000	4.979E-11	2.916E-8	   24.6120	   26.6936	    3.4720	    0.0000	
 -360.0000	4.937E-11	2.200E-8	   24.6120	   26.6936	    3.4720	    0.0000	
 -365.0000	5.027E-11	3.445E-8	   24.6120	   26.6936	    3.4720	    0.0000	
 -370.0000	4.892E-11	2.994E-8	   24.6120	   26.6936	    3.4720	    0.0000	
 -375.0000	5.017E-11	2.403E-8	   24.6120	   26.6936	    3.4720	    0.0000	
 -380.0000	4.926E-11	2.776E-8	   24.6120	   26.6936	    3.4720	    0.0000	
 -385.0000	5.082E-11	1.699E-8	   24.6120	   26.6936	    3.4720	    0.0000	
 -390.0000	4.955E-11	1.898E-8	   24.6120	   26.6936	    3.4720	    0.0000	
 -395.0000	4.968E-11	2.644E-8	   24.6120	   26.6936	    3.4720	    0.0000	
 -400.0000	4.979E-11	1.790E-8	   24.6120	   26.6936	    3.4720	    0.0000	
 -410.0000	4.979E-11	2.011E-8	   24.6120	   26.6936	    3.4720	    0.0000	
 -420.0000	4.918E-11	3.171E-8	   24.6120	   26.6936	    3.4720	    0.0000	
 -430.0000	4.856E-11	2.136E-8	   24.6120	   26.6936	    3.4720	    0.0000	
 -440.0000	4.802E-11	2.993E-8	   24.6120	   26.6936	    3.4720	    0.0000	
 -450.0000	4.929E-11	3.418E-8	   24.6120	   26.6936	    3.4720	    0.0000	
 -460.0000	4.861E-11	2.969E-8	   24.6120	   26.6936	    3.4720	    0.0000	
 -470.0000	5.001E-11	3.428E-8	   24.6120	   26.6936	    3.4720	    0.0000	
 -480.0000	4.875E-11	2.186E-8	   24.6120	   26.6936	    3.4720	    0.0000	
 -490.0000	4.983E-11	2.227E-8	   24.6120	   26.6936	    3.4720	    0.0000	
 -500.0000	4.988E-11	1.704E-8	   24.6120	   26.6936	    3.4720	    0.0000	
 -510.0000	4.754E-11	1.917E-8	   24.6120	   26.6936	    3.4720	    0.0000	
 -520.0000	5.096E-11	3.043E-8	   24.6120	   26.6936	    3.4720	    0.0000	
 -530.0000	4.888E-11	2.125E-8	   24.6120	   26.6936	    3.4720	    0.0000	
 -540.0000	5.055E-11	2.216E-8	   24.6120	   26.6936	    3.4720	    0.0000	
 -550.0000	4.949E-11	2.899E-8	   24.6120	   26.6936	    3.4720	    0.0000	
 -560.0000	5.060E-11	2.385E-8	   24.6120	   26.6936	    3.4720	    0.0000	
 -570.0000	4.946E-11	2.732E-8	   24.6120	   26.6936	    3.4720	    0.0000	
 -580.0000	5.119E-11	2.809E-8	   24.6120	   26.6936	    3.4720	    0.0000	
 -590.0000	4.989E-11	2.783E-8	   24.6120	   26.6936	    3.4720	    0.0000	
 -600.0000	4.850E-11	3.004E-8	   24.6120	   26.6936	    3.4720	    0.0000	
