GCD Test
Bias: 5000.000000
CV_N4789_20_LL_DIODEHALF_GR_Irradiated_Annealed_60C_10min
Date/Time: 3/3/2022 4:08:35 PM
Sensor Name: DIODEHALF
Type: 
Annealing Status: Irradiated and Annealed at 60C for 10 minutes
Environment: 
Tester: Andrew Kent

Time Delay per Ramp Step (s): 0.500

CV Time Delay per Measurement (s) :0.500

AC Voltage (V): 0.500

Current Number of measurements per voltage: 1.000

IV Time Delay per Measurement (s) :0.000


BiasVoltage	LCR_Cp_freq1000.0	LCR_Cp_freq10000.0	LCR_Rp_freq1000.0	LCR_Rp_freq10000.0	Temperature	Air_Temp	Humidity	Dewpoint	
  -10.0000	5.163E-11	8.556E-12	2.393E+6	9.573E+5	    0.0333	   15.3283	   25.7514	   -4.1813	
  -20.0000	4.193E-11	9.323E-12	3.310E+6	1.120E+6	    0.0281	   15.3458	   25.7657	   -4.1590	
  -30.0000	3.593E-11	9.394E-12	4.080E+6	1.290E+6	    0.0281	   15.3322	   25.7824	   -4.1620	
  -40.0000	3.180E-11	9.276E-12	4.759E+6	1.453E+6	    0.0205	   15.3204	   25.7929	   -4.1667	
  -50.0000	2.862E-11	9.109E-12	5.349E+6	1.612E+6	    0.0154	   15.3022	   25.7992	   -4.1789	
  -60.0000	2.619E-11	8.897E-12	5.906E+6	1.768E+6	    0.0077	   15.3105	   25.8283	   -4.1569	
  -70.0000	2.437E-11	8.683E-12	6.408E+6	1.927E+6	   -0.0000	   15.2861	   25.8653	   -4.1587	
  -80.0000	2.268E-11	8.440E-12	6.894E+6	2.080E+6	   -0.0051	   15.2891	   25.8707	   -4.1534	
  -90.0000	2.134E-11	8.250E-12	7.330E+6	2.230E+6	   -0.0102	   15.2822	   25.8751	   -4.1570	
 -100.0000	2.020E-11	8.071E-12	7.779E+6	2.381E+6	   -0.0154	   15.2779	   25.8824	   -4.1569	
 -110.0000	1.913E-11	7.817E-12	8.168E+6	2.542E+6	   -0.0256	   15.2676	   25.9086	   -4.1523	
 -120.0000	1.823E-11	7.723E-12	8.652E+6	2.702E+6	   -0.0230	   15.2632	   25.9149	   -4.1528	
 -130.0000	1.738E-11	7.471E-12	9.017E+6	2.860E+6	   -0.0281	   15.2620	   25.9421	   -4.1399	
 -140.0000	1.651E-11	7.254E-12	9.555E+6	3.054E+6	   -0.0307	   15.2390	   25.9915	   -4.1343	
 -150.0000	1.577E-11	7.024E-12	1.004E+7	3.254E+6	   -0.0307	   15.2342	   26.0101	   -4.1289	
 -160.0000	1.489E-11	6.732E-12	1.068E+7	3.481E+6	   -0.0358	   15.2383	   26.0234	   -4.1186	
 -170.0000	1.395E-11	6.453E-12	1.139E+7	3.785E+6	   -0.0384	   15.2176	   26.0515	   -4.1219	
 -180.0000	1.329E-11	6.183E-12	1.231E+7	4.167E+6	   -0.0435	   15.2219	   26.0892	   -4.0990	
 -190.0000	1.240E-11	5.935E-12	1.344E+7	4.631E+6	   -0.0461	   15.2160	   26.0870	   -4.1051	
 -200.0000	1.161E-11	5.714E-12	1.466E+7	5.229E+6	   -0.0435	   15.2160	   26.1006	   -4.0982	
 -220.0000	1.005E-11	5.364E-12	1.759E+7	6.776E+6	   -0.0435	   15.2280	   26.1139	   -4.0813	
 -240.0000	8.706E-12	5.134E-12	2.095E+7	8.822E+6	   -0.0409	   15.1862	   26.1518	   -4.0976	
 -260.0000	7.627E-12	4.995E-12	2.454E+7	1.132E+7	   -0.0409	   15.2016	   26.1711	   -4.0747	
 -280.0000	6.786E-12	4.906E-12	2.858E+7	1.457E+7	   -0.0409	   15.1977	   26.1818	   -4.0725	
 -300.0000	6.211E-12	4.840E-12	3.240E+7	1.754E+7	   -0.0358	   15.1751	   26.2226	   -4.0711	
 -320.0000	5.802E-12	4.794E-12	3.616E+7	2.063E+7	   -0.0358	   15.1775	   26.2331	   -4.0638	
 -340.0000	5.497E-12	4.763E-12	3.951E+7	2.355E+7	   -0.0333	   15.1775	   26.2650	   -4.0476	
 -360.0000	5.285E-12	4.741E-12	4.267E+7	2.611E+7	   -0.0307	   15.1467	   26.2619	   -4.0756	
 -380.0000	5.146E-12	4.724E-12	4.511E+7	2.826E+7	   -0.0256	   15.1629	   26.3065	   -4.0391	
 -400.0000	5.033E-12	4.713E-12	4.721E+7	3.012E+7	   -0.0256	   15.1542	   26.3286	   -4.0354	
 -440.0000	4.878E-12	4.696E-12	5.002E+7	3.283E+7	   -0.0205	   15.1362	   26.3355	   -4.0473	
 -480.0000	4.771E-12	4.685E-12	5.167E+7	3.464E+7	   -0.0128	   15.1284	   26.3615	   -4.0409	
 -520.0000	4.709E-12	4.677E-12	5.209E+7	3.561E+7	   -0.0128	   15.1065	   26.3722	   -4.0542	
 -560.0000	4.668E-12	4.669E-12	5.191E+7	3.603E+7	   -0.0077	   15.1118	   26.3792	   -4.0461	
 -600.0000	4.622E-12	4.664E-12	5.113E+7	3.594E+7	   -0.0026	   15.0978	   26.3767	   -4.0594	
 -640.0000	4.585E-12	4.660E-12	4.973E+7	3.564E+7	   -0.0000	   15.0862	   26.3884	   -4.0634	
 -680.0000	4.553E-12	4.654E-12	4.781E+7	3.498E+7	    0.0051	   15.0811	   26.4086	   -4.0576	
 -720.0000	4.530E-12	4.650E-12	4.594E+7	3.424E+7	    0.0026	   15.0934	   26.4127	   -4.0450	
 -760.0000	4.504E-12	4.644E-12	4.396E+7	3.325E+7	    0.0128	   15.0795	   26.4440	   -4.0412	
 -800.0000	4.477E-12	4.641E-12	4.160E+7	3.198E+7	    0.0154	   15.0779	   26.4573	   -4.0359	
 -840.0000	4.436E-12	4.636E-12	3.908E+7	3.076E+7	    0.0128	   15.0653	   26.4763	   -4.0371	
 -880.0000	4.398E-12	4.632E-12	3.670E+7	2.940E+7	    0.0154	   15.0777	   26.5237	   -4.0027	
 -920.0000	4.381E-12	4.626E-12	3.422E+7	2.789E+7	    0.0205	   15.0707	   26.5364	   -4.0023	
 -960.0000	4.342E-12	4.622E-12	3.159E+7	2.623E+7	    0.0179	   15.0621	   26.5531	   -4.0012	
-1000.0000	4.296E-12	4.617E-12	2.904E+7	2.446E+7	    0.0205	   15.0467	   26.5822	   -3.9999	
