GCD Test
Bias: 5000.000000
IV_34340_014_PSS_HM_XX_DIODE_Irradiated
Date/Time: 7/2/2021 2:54:16 PM
Sensor Name: DIODE
Type: P
Annealing Status: Not Irradiated
Environment: 20C
Tester: Andrew Kent

Time Delay per Ramp Step (s): 0.500

CV Time Delay per Measurement (s) :0.500

AC Voltage (V): 0.500

Current Number of measurements per voltage: 1.000

IV Time Delay per Measurement (s) :0.000


BiasVoltage	Total Current_Avg	Total Current_0	Bias Current_Avg	Bias Current_0	Temperature	Air_Temp	Humidity	Dewpoint	
   -5.0000	-3.9000E-11	-3.9000E-11	-9.898265E-11	-9.898265E-11	   20.3822	   14.8869	   10.6502	  -15.6872	
  -10.0000	-9.6000E-11	-9.6000E-11	-1.020412E-10	-1.020412E-10	   20.2432	   14.8973	   10.5133	  -15.7621	
  -15.0000	-2.0000E-10	-2.0000E-10	-1.056483E-10	-1.056483E-10	   20.1454	   14.9130	   10.4649	  -15.8223	
  -20.0000	-1.0300E-10	-1.0300E-10	-1.084937E-10	-1.084937E-10	   20.0064	   14.9198	   10.4121	  -15.8724	
  -25.0000	-2.0100E-10	-2.0100E-10	-1.109464E-10	-1.109464E-10	   19.8777	   14.9332	   10.3735	  -15.9227	
  -30.0000	-2.0700E-10	-2.0700E-10	-1.146818E-10	-1.146818E-10	   19.7465	   14.9519	   10.3188	  -15.9527	
  -35.0000	-2.7800E-10	-2.7800E-10	-1.179888E-10	-1.179888E-10	   19.7465	   14.9592	   10.3188	  -16.0104	
  -40.0000	-3.7300E-10	-3.7300E-10	-1.239247E-10	-1.239247E-10	   19.6410	   14.9710	   10.2612	  -16.0683	
  -45.0000	-3.1500E-10	-3.1500E-10	-1.301441E-10	-1.301441E-10	   19.5972	   14.9809	   10.2309	  -16.0961	
  -50.0000	-4.1800E-10	-4.1800E-10	-1.374090E-10	-1.374090E-10	   19.5946	   15.0001	   10.1860	  -16.1339	
  -55.0000	-3.4100E-10	-3.4100E-10	-1.452379E-10	-1.452379E-10	   19.6487	   15.0191	   10.1458	  -16.1666	
  -60.0000	-3.0700E-10	-3.0700E-10	-1.519343E-10	-1.519343E-10	   19.7568	   15.0226	   10.1097	  -16.2064	
  -65.0000	-4.1400E-10	-4.1400E-10	-1.564990E-10	-1.564990E-10	   19.8958	   15.0374	   10.0800	  -16.2303	
  -70.0000	-3.8800E-10	-3.8800E-10	-1.601597E-10	-1.601597E-10	   20.0528	   15.0454	   10.0512	  -16.2583	
  -75.0000	-3.7100E-10	-3.7100E-10	-1.644888E-10	-1.644888E-10	   20.1866	   15.0491	   10.0225	  -16.2897	
  -80.0000	-3.5700E-10	-3.5700E-10	-1.688307E-10	-1.688307E-10	   20.2999	   15.0607	   10.0066	  -16.2996	
  -85.0000	-2.9000E-10	-2.9000E-10	-1.682846E-10	-1.682846E-10	   20.3642	   15.0774	    9.9538	  -16.3499	
  -90.0000	-3.6900E-10	-3.6900E-10	-1.687565E-10	-1.687565E-10	   20.3642	   15.0774	    9.9538	  -16.3499	
  -95.0000	-5.4100E-10	-5.4100E-10	-1.675296E-10	-1.675296E-10	   20.2664	   15.1100	    9.9001	  -16.3895	
 -100.0000	-5.5700E-10	-5.5700E-10	-1.674122E-10	-1.674122E-10	   20.1326	   15.1100	    9.9001	  -16.3895	
 -105.0000	-4.3100E-10	-4.3100E-10	-1.656416E-10	-1.656416E-10	   19.9936	   15.1500	    9.8352	  -16.3924	
 -110.0000	-5.8700E-10	-5.8700E-10	-1.644717E-10	-1.644717E-10	   19.8726	   15.1500	    9.8159	  -16.4372	
 -115.0000	-4.9000E-10	-4.9000E-10	-1.642134E-10	-1.642134E-10	   19.7696	   15.1582	    9.8159	  -16.4544	
 -120.0000	-4.8600E-10	-4.8600E-10	-1.638013E-10	-1.638013E-10	   19.6976	   15.1849	    9.7653	  -16.4697	
 -125.0000	-5.5600E-10	-5.5600E-10	-1.647051E-10	-1.647051E-10	   19.6744	   15.2000	    9.7502	  -16.5025	
 -130.0000	-5.3900E-10	-5.3900E-10	-1.658586E-10	-1.658586E-10	   19.7079	   15.2000	    9.7261	  -16.5025	
 -135.0000	-6.0100E-10	-6.0100E-10	-1.678867E-10	-1.678867E-10	   19.7079	   15.2058	    9.7261	  -16.5275	
 -140.0000	-5.1200E-10	-5.1200E-10	-1.705575E-10	-1.705575E-10	   19.7980	   15.2214	    9.6926	  -16.5566	
 -145.0000	-6.4400E-10	-6.4400E-10	-1.727537E-10	-1.727537E-10	   19.9035	   15.2355	    9.6771	  -16.5650	
 -150.0000	-1.4200E-10	-1.4200E-10	-1.741551E-10	-1.741551E-10	   20.0245	   15.2431	    9.6689	  -16.5692	
 -155.0000	-5.3700E-10	-5.3700E-10	-1.756208E-10	-1.756208E-10	   20.1274	   15.2642	    9.6474	  -16.5796	
 -160.0000	-6.3300E-10	-6.3300E-10	-1.770839E-10	-1.770839E-10	   20.2046	   15.2748	    9.6347	  -16.5872	
 -165.0000	-5.7700E-10	-5.7700E-10	-1.773253E-10	-1.773253E-10	   20.2638	   15.2853	    9.6218	  -16.5952	
 -170.0000	-5.6700E-10	-5.6700E-10	-1.770263E-10	-1.770263E-10	   20.2767	   15.2967	    9.6123	  -16.5982	
 -175.0000	-6.8500E-10	-6.8500E-10	-1.767643E-10	-1.767643E-10	   20.2587	   15.3103	    9.6072	  -16.5941	
 -180.0000	-6.4800E-10	-6.4800E-10	-1.751759E-10	-1.751759E-10	   20.2021	   15.3137	    9.5854	  -16.6185	
 -185.0000	-7.1900E-10	-7.1900E-10	-1.734017E-10	-1.734017E-10	   20.1223	   15.3227	    9.5680	  -16.6333	
 -190.0000	-6.0000E-10	-6.0000E-10	-1.733697E-10	-1.733697E-10	   20.0322	   15.3287	    9.5471	  -16.6547	
 -195.0000	-6.3600E-10	-6.3600E-10	-1.728123E-10	-1.728123E-10	   19.9318	   15.3420	    9.5256	  -16.6714	
 -200.0000	-6.5800E-10	-6.5800E-10	-1.728269E-10	-1.728269E-10	   19.8494	   15.3513	    9.5199	  -16.6714	
 -205.0000	-6.8200E-10	-6.8200E-10	-1.742527E-10	-1.742527E-10	   19.7851	   15.3650	    9.4924	  -16.6954	
 -210.0000	-6.6800E-10	-6.6800E-10	-1.772890E-10	-1.772890E-10	   19.7568	   15.3771	    9.4782	  -16.7040	
 -215.0000	-7.0400E-10	-7.0400E-10	-1.798651E-10	-1.798651E-10	   19.7722	   15.3848	    9.4630	  -16.7172	
 -220.0000	-7.0600E-10	-7.0600E-10	-1.844458E-10	-1.844458E-10	   19.8366	   15.3890	    9.4567	  -16.7219	
 -225.0000	-7.9000E-10	-7.9000E-10	-1.880358E-10	-1.880358E-10	   19.9215	   15.4204	    9.4273	  -16.7350	
 -230.0000	-8.0100E-10	-8.0100E-10	-1.930073E-10	-1.930073E-10	   20.0296	   15.4275	    9.4244	  -16.7332	
 -235.0000	-9.0300E-10	-9.0300E-10	-2.055812E-10	-2.055812E-10	   20.1995	   15.4626	    9.4042	  -16.7320	
 -240.0000	-7.3700E-10	-7.3700E-10	-2.568463E-10	-2.568463E-10	   20.3719	   15.4626	    9.3890	  -16.7320	
 -245.0000	-7.4700E-10	-7.4700E-10	-1.960429E-10	-1.960429E-10	   20.3719	   15.4626	    9.3890	  -16.7512	
 -250.0000	-7.3100E-10	-7.3100E-10	-1.474605E-10	-1.474605E-10	   20.4286	   15.4903	    9.3725	  -16.7509	
 -255.0000	-7.3700E-10	-7.3700E-10	-3.219931E-10	-3.219931E-10	   20.4286	   15.5004	    9.3523	  -16.7689	
 -260.0000	-7.2600E-10	-7.2600E-10	-1.886399E-10	-1.886399E-10	   20.2741	   15.5004	    9.3270	  -16.7689	
 -265.0000	-7.5800E-10	-7.5800E-10	-5.572771E-10	-5.572771E-10	   20.2741	   15.5095	    9.3270	  -16.7942	
 -270.0000	-7.6700E-10	-7.6700E-10	-2.753721E-10	-2.753721E-10	   20.0888	   15.5290	    9.3096	  -16.8015	
 -275.0000	-7.6200E-10	-7.6200E-10	-9.251561E-11	-9.251561E-11	   19.8649	   15.5290	    9.2840	  -16.8015	
 -280.0000	-7.5300E-10	-7.5300E-10	-3.571333E-11	-3.571333E-11	   19.7645	   15.5462	    9.2840	  -16.8212	
 -285.0000	-9.4000E-10	-9.4000E-10	-3.266550E-10	-3.266550E-10	   19.6976	   15.5561	    9.2710	  -16.8303	
 -290.0000	-9.6800E-10	-9.6800E-10	-5.887058E-11	-5.887058E-11	   19.6976	   15.5600	    9.2498	  -16.8545	
 -295.0000	-8.5800E-10	-8.5800E-10	-1.683336E-10	-1.683336E-10	   19.7002	   15.5600	    9.2343	  -16.8744	
 -300.0000	-9.5600E-10	-9.5600E-10	-1.911632E-10	-1.911632E-10	   19.7491	   15.5753	    9.2416	  -16.8533	
 -305.0000	-1.0630E-9	-1.0630E-9	-1.408770E-10	-1.408770E-10	   19.8366	   15.5882	    9.2274	  -16.8619	
 -310.0000	-9.3100E-10	-9.3100E-10	-2.033200E-10	-2.033200E-10	   20.0502	   15.5882	    9.2179	  -16.8619	
 -315.0000	-9.8100E-10	-9.8100E-10	-5.766081E-10	-5.766081E-10	   20.0502	   15.5979	    9.2179	  -16.8667	
 -320.0000	-1.1230E-9	-1.1230E-9	-3.449209E-10	-3.449209E-10	   20.2381	   15.6166	    9.2078	  -16.8655	
 -325.0000	-1.0330E-9	-1.0330E-9	-2.909773E-10	-2.909773E-10	   20.3925	   15.6315	    9.2049	  -16.8579	
 -330.0000	-8.8900E-10	-8.8900E-10	-2.054699E-10	-2.054699E-10	   20.4981	   15.6315	    9.1872	  -16.8579	
 -335.0000	-9.7000E-10	-9.7000E-10	-1.101254E-10	-1.101254E-10	   20.4981	   15.6573	    9.1872	  -16.8611	
 -340.0000	-9.5600E-10	-9.5600E-10	-2.181414E-10	-2.181414E-10	   20.5058	   15.6750	    9.1875	  -16.8472	
 -345.0000	-1.0360E-9	-1.0360E-9	-1.575163E-10	-1.575163E-10	   20.4492	   15.6917	    9.1654	  -16.8632	
 -350.0000	 0.0000E+0	 0.0000E+0	0.000000E+0	0.000000E+0	    0.0000	    0.0000	    0.0000	    0.0000	
