GCD Test
Bias: 5000.000000
IV_38696_046_2-S_HM_XX_DIODEQUARTER
Date/Time: 4/5/2022 12:57:01 AM
Sensor Name: 
Type: P
Annealing Status: Not Irradiated
Environment: 20C
Tester: Andrew Kent

Time Delay per Ramp Step (s): 0.500

CV Time Delay per Measurement (s) :0.500

AC Voltage (V): 0.500

Current Number of measurements per voltage: 1.000

IV Time Delay per Measurement (s) :0.000


BiasVoltage	Total Current_Avg	Total Current_0	Bias Current_Avg	Bias Current_0	Temperature	Air_Temp	Humidity	Dewpoint	
  -10.0000	4.3800E-10	4.3800E-10	-4.440662E-11	-4.440662E-11	   20.0116	   21.2573	   23.1218	   -0.6333	
  -20.0000	2.2800E-10	2.2800E-10	-4.745824E-11	-4.745824E-11	   20.0116	   21.2564	   23.1218	   -0.6202	
  -30.0000	1.1400E-10	1.1400E-10	-5.028515E-11	-5.028515E-11	   20.0039	   21.2547	   23.1123	   -0.6273	
  -40.0000	4.5000E-11	4.5000E-11	-5.459528E-11	-5.459528E-11	   20.0039	   21.2547	   23.1240	   -0.6203	
  -50.0000	-7.0000E-12	-7.0000E-12	-6.244451E-11	-6.244451E-11	   19.9987	   21.2552	   23.1259	   -0.6188	
  -60.0000	4.0000E-12	4.0000E-12	-6.701723E-11	-6.701723E-11	   19.9987	   21.2541	   23.1214	   -0.6224	
  -70.0000	-1.3500E-10	-1.3500E-10	-7.026769E-11	-7.026769E-11	   19.9936	   21.2543	   23.1325	   -0.6157	
  -80.0000	-1.6400E-10	-1.6400E-10	-7.260954E-11	-7.260954E-11	   19.9936	   21.2454	   23.1335	   -0.6226	
  -90.0000	-2.0400E-10	-2.0400E-10	-7.388579E-11	-7.388579E-11	   19.9936	   21.2492	   23.1341	   -0.6190	
 -100.0000	-1.2000E-10	-1.2000E-10	-7.418666E-11	-7.418666E-11	   19.9961	   21.2481	   23.1293	   -0.6227	
 -110.0000	-1.7800E-10	-1.7800E-10	-7.572899E-11	-7.572899E-11	   19.9987	   21.2524	   23.1407	   -0.6124	
 -120.0000	-2.5100E-10	-2.5100E-10	-7.571595E-11	-7.571595E-11	   20.0013	   21.2518	   23.1429	   -0.6116	
 -130.0000	-2.0500E-10	-2.0500E-10	-7.621688E-11	-7.621688E-11	   20.0039	   21.2509	   23.1439	   -0.6118	
 -140.0000	-2.3300E-10	-2.3300E-10	-7.703765E-11	-7.703765E-11	   20.0064	   21.2469	   23.1398	   -0.6175	
 -150.0000	-3.1000E-10	-3.1000E-10	-7.739962E-11	-7.739962E-11	   20.0090	   21.2533	   23.1471	   -0.6079	
 -160.0000	-4.1300E-10	-4.1300E-10	-7.817210E-11	-7.817210E-11	   20.0116	   21.2531	   23.1509	   -0.6058	
 -170.0000	-3.1200E-10	-3.1200E-10	-7.864638E-11	-7.864638E-11	   20.0090	   21.2519	   23.1458	   -0.6098	
 -180.0000	-3.8200E-10	-3.8200E-10	-7.960744E-11	-7.960744E-11	   20.0090	   21.2542	   23.1426	   -0.6098	
 -190.0000	-4.3000E-10	-4.3000E-10	-8.145003E-11	-8.145003E-11	   20.0064	   21.2549	   23.1455	   -0.6074	
 -200.0000	-3.7100E-10	-3.7100E-10	-8.238058E-11	-8.238058E-11	   19.9987	   21.2533	   23.1518	   -0.6051	
 -210.0000	-4.0700E-10	-4.0700E-10	-8.469414E-11	-8.469414E-11	   19.9936	   21.2533	   23.1417	   -0.6051	
 -220.0000	-4.3600E-10	-4.3600E-10	-8.599832E-11	-8.599832E-11	   19.9910	   21.2534	   23.1404	   -0.6109	
 -230.0000	-4.4000E-10	-4.4000E-10	-8.750010E-11	-8.750010E-11	   19.9910	   21.2496	   23.1407	   -0.6149	
 -240.0000	-4.6200E-10	-4.6200E-10	-8.909373E-11	-8.909373E-11	   19.9910	   21.2489	   23.1493	   -0.6153	
 -250.0000	-5.3900E-10	-5.3900E-10	-9.013063E-11	-9.013063E-11	   19.9936	   21.2466	   23.1379	   -0.6122	
 -260.0000	-5.4900E-10	-5.4900E-10	-9.104815E-11	-9.104815E-11	   19.9961	   21.2507	   23.1357	   -0.6155	
 -270.0000	-5.3500E-10	-5.3500E-10	-9.198438E-11	-9.198438E-11	   19.9961	   21.2447	   23.1357	   -0.6218	
 -280.0000	-5.3800E-10	-5.3800E-10	-9.317859E-11	-9.317859E-11	   20.0013	   21.2484	   23.1385	   -0.6170	
 -290.0000	-5.5500E-10	-5.5500E-10	-9.396224E-11	-9.396224E-11	   20.0064	   21.2468	   23.1293	   -0.6238	
 -300.0000	-5.7600E-10	-5.7600E-10	-9.491925E-11	-9.491925E-11	   20.0090	   21.2466	   23.1287	   -0.6244	
 -310.0000	-5.9100E-10	-5.9100E-10	-9.576324E-11	-9.576324E-11	   20.0090	   21.2460	   23.1312	   -0.6233	
 -320.0000	-6.1500E-10	-6.1500E-10	-9.612342E-11	-9.612342E-11	   20.0116	   21.2441	   23.1145	   -0.6349	
 -330.0000	-7.6500E-10	-7.6500E-10	-9.648421E-11	-9.648421E-11	   20.0116	   21.2446	   23.1148	   -0.6343	
 -340.0000	-6.8100E-10	-6.8100E-10	-9.757447E-11	-9.757447E-11	   20.0090	   21.2503	   23.1069	   -0.6341	
 -350.0000	-6.6100E-10	-6.6100E-10	-9.782522E-11	-9.782522E-11	   20.0039	   21.2477	   23.1003	   -0.6403	
 -360.0000	-7.0900E-10	-7.0900E-10	-9.861176E-11	-9.861176E-11	   20.0013	   21.2518	   23.0977	   -0.6384	
 -370.0000	-7.1400E-10	-7.1400E-10	-9.885378E-11	-9.885378E-11	   19.9961	   21.2493	   23.1031	   -0.6373	
 -380.0000	-7.1100E-10	-7.1100E-10	-9.936712E-11	-9.936712E-11	   19.9936	   21.2455	   23.0867	   -0.6502	
 -390.0000	-7.4000E-10	-7.4000E-10	-9.992161E-11	-9.992161E-11	   19.9936	   21.2455	   23.0759	   -0.6502	
 -400.0000	-7.9800E-10	-7.9800E-10	-1.001626E-10	-1.001626E-10	   19.9936	   21.2491	   23.0803	   -0.6535	
 -420.0000	-9.3800E-10	-9.3800E-10	-1.015214E-10	-1.015214E-10	   19.9961	   21.2519	   23.0803	   -0.6485	
 -440.0000	-1.1260E-9	-1.1260E-9	-1.027987E-10	-1.027987E-10	   19.9987	   21.2520	   23.0879	   -0.6440	
 -460.0000	-1.2390E-9	-1.2390E-9	-1.041829E-10	-1.041829E-10	   19.9987	   21.2496	   23.0734	   -0.6546	
 -480.0000	-1.1900E-9	-1.1900E-9	-1.046426E-10	-1.046426E-10	   20.0013	   21.2496	   23.0731	   -0.6548	
 -500.0000	-1.2070E-9	-1.2070E-9	-1.054632E-10	-1.054632E-10	   20.0013	   21.2527	   23.0756	   -0.6507	
 -520.0000	-1.2950E-9	-1.2950E-9	-1.064349E-10	-1.064349E-10	   20.0064	   21.2531	   23.0601	   -0.6595	
 -540.0000	-1.3490E-9	-1.3490E-9	-1.069290E-10	-1.069290E-10	   20.0090	   21.2532	   23.0528	   -0.6638	
 -560.0000	-1.4410E-9	-1.4410E-9	-1.079390E-10	-1.079390E-10	   20.0090	   21.2509	   23.0519	   -0.6663	
 -580.0000	-1.4360E-9	-1.4360E-9	-1.086043E-10	-1.086043E-10	   20.0090	   21.2509	   23.0459	   -0.6663	
 -600.0000	-1.5120E-9	-1.5120E-9	-1.095102E-10	-1.095102E-10	   20.0090	   21.2545	   23.0459	   -0.6668	
 -620.0000	-1.6390E-9	-1.6390E-9	-1.100579E-10	-1.100579E-10	   20.0090	   21.2507	   23.0433	   -0.6715	
 -640.0000	-1.6470E-9	-1.6470E-9	-1.105184E-10	-1.105184E-10	   20.0039	   21.2536	   23.0392	   -0.6715	
 -660.0000	-1.6670E-9	-1.6670E-9	-1.114002E-10	-1.114002E-10	   19.9987	   21.2536	   23.0310	   -0.6715	
 -680.0000	-1.7550E-9	-1.7550E-9	-1.121599E-10	-1.121599E-10	   19.9987	   21.2517	   23.0310	   -0.6780	
 -700.0000	-1.8020E-9	-1.8020E-9	-1.129796E-10	-1.129796E-10	   19.9961	   21.2513	   23.0316	   -0.6779	
 -720.0000	-1.7730E-9	-1.7730E-9	-1.137861E-10	-1.137861E-10	   19.9936	   21.2505	   23.0452	   -0.6706	
 -740.0000	-1.7980E-9	-1.7980E-9	-1.143147E-10	-1.143147E-10	   19.9910	   21.2498	   23.0411	   -0.6735	
 -760.0000	-1.8090E-9	-1.8090E-9	-1.152650E-10	-1.152650E-10	   19.9910	   21.2498	   23.0411	   -0.6735	
 -780.0000	-1.8150E-9	-1.8150E-9	-1.158595E-10	-1.158595E-10	   19.9910	   21.2460	   23.0297	   -0.6836	
 -800.0000	-1.8990E-9	-1.8990E-9	-1.166992E-10	-1.166992E-10	   19.9936	   21.2394	   23.0288	   -0.6896	
 -820.0000	-2.0170E-9	-2.0170E-9	-1.174875E-10	-1.174875E-10	   19.9961	   21.2513	   23.0335	   -0.6768	
 -840.0000	-2.0710E-9	-2.0710E-9	-1.186575E-10	-1.186575E-10	   19.9987	   21.2460	   23.0180	   -0.6905	
 -860.0000	-1.9940E-9	-1.9940E-9	-1.197284E-10	-1.197284E-10	   20.0039	   21.2460	   23.0161	   -0.6905	
 -880.0000	-2.0260E-9	-2.0260E-9	-1.212285E-10	-1.212285E-10	   20.0039	   21.2460	   23.0161	   -0.6916	
 -900.0000	-2.0770E-9	-2.0770E-9	-1.218362E-10	-1.218362E-10	   20.0090	   21.2467	   23.0158	   -0.6912	
 -920.0000	-2.0780E-9	-2.0780E-9	-1.234581E-10	-1.234581E-10	   20.0116	   21.2449	   23.0262	   -0.6865	
 -940.0000	-2.0860E-9	-2.0860E-9	-1.247649E-10	-1.247649E-10	   20.0142	   21.2449	   23.0155	   -0.6865	
 -960.0000	-2.1480E-9	-2.1480E-9	-1.264947E-10	-1.264947E-10	   20.0142	   21.2463	   23.0155	   -0.6917	
 -980.0000	-2.1810E-9	-2.1810E-9	-1.279023E-10	-1.279023E-10	   20.0116	   21.2443	   23.0095	   -0.6970	
-1000.0000	-2.1830E-9	-2.1830E-9	-1.300592E-10	-1.300592E-10	   20.0090	   21.2420	   23.0152	   -0.6955	
