37399_033_PSS_HM_XX_Unirrad
Date/Time: 11/1/2021 3:50:50 PM
Sensor Name: 37399_033_PSS_HM_XX
Type: P
Annealing Status: Not Irradiated
Environment: 23.5C
Tester: Eric Spencer
Notes: Pre-irrad measurement

Time Delay per Ramp Step (s): 0.500

CV Time Delay per Measurement (s) :0.500

AC Voltage (V): 0.500

Current Number of measurements per voltage: 4.000

IV Time Delay per Measurement (s) :0.500


BiasVoltage	LCR_Cp_freq1	LCR_G_freq1	Temperature	Air_Temp	Humidity	Dewpoint	
   -5.0000	4.939E-10	4.336E-7	   20.0000	   27.0956	    1.4298	    0.0000	
  -10.0000	3.040E-10	6.109E-8	   20.0000	   27.0956	    1.4298	    0.0000	
  -15.0000	2.482E-10	3.968E-8	   20.0000	   27.0956	    1.4298	    0.0000	
  -20.0000	2.153E-10	3.142E-8	   20.0000	   27.0956	    1.4298	    0.0000	
  -25.0000	1.897E-10	2.596E-8	   20.0000	   27.0956	    1.4298	    0.0000	
  -30.0000	1.715E-10	2.174E-8	   20.0000	   27.0956	    1.4298	    0.0000	
  -35.0000	1.593E-10	1.979E-8	   20.0000	   27.0956	    1.4298	    0.0000	
  -40.0000	1.499E-10	1.638E-8	   20.0000	   27.0956	    1.4298	    0.0000	
  -45.0000	1.412E-10	2.479E-8	   20.0000	   27.0956	    1.4298	    0.0000	
  -50.0000	1.285E-10	1.332E-8	   20.0000	   27.0956	    1.4298	    0.0000	
  -55.0000	1.232E-10	1.295E-8	   20.0000	   27.0956	    1.4298	    0.0000	
  -60.0000	1.181E-10	1.366E-8	   20.0000	   27.0956	    1.4298	    0.0000	
  -65.0000	1.138E-10	1.177E-8	   20.0000	   27.0956	    1.4298	    0.0000	
  -70.0000	1.102E-10	1.093E-8	   20.0000	   27.0956	    1.4298	    0.0000	
  -75.0000	1.068E-10	9.055E-9	   20.0000	   27.0956	    1.4298	    0.0000	
  -80.0000	1.037E-10	9.863E-9	   20.0000	   27.0956	    1.4298	    0.0000	
  -85.0000	1.008E-10	8.843E-9	   20.0000	   27.0956	    1.4298	    0.0000	
  -90.0000	9.811E-11	6.937E-9	   20.0000	   27.0956	    1.4298	    0.0000	
  -95.0000	9.587E-11	8.566E-9	   20.0000	   27.0956	    1.4298	    0.0000	
 -100.0000	9.348E-11	7.632E-9	   20.0000	   27.0956	    1.4298	    0.0000	
 -105.0000	9.139E-11	7.171E-9	   20.0000	   27.0956	    1.4298	    0.0000	
 -110.0000	8.965E-11	7.549E-9	   20.0000	   27.0956	    1.4298	    0.0000	
 -115.0000	8.771E-11	7.022E-9	   20.0000	   27.0956	    1.4298	    0.0000	
 -120.0000	8.604E-11	6.324E-9	   20.0000	   27.0956	    1.4298	    0.0000	
 -125.0000	8.440E-11	5.442E-9	   20.0000	   27.0956	    1.4298	    0.0000	
 -130.0000	8.291E-11	5.643E-9	   20.0000	   27.0956	    1.4298	    0.0000	
 -135.0000	8.140E-11	5.327E-9	   20.0000	   27.0956	    1.4298	    0.0000	
 -140.0000	8.043E-11	4.016E-9	   20.0000	   27.0956	    1.4298	    0.0000	
 -145.0000	7.902E-11	5.627E-9	   20.0000	   27.0956	    1.4298	    0.0000	
 -150.0000	7.771E-11	4.457E-9	   20.0000	   27.0956	    1.4298	    0.0000	
 -155.0000	7.674E-11	4.056E-9	   20.0000	   27.0956	    1.4298	    0.0000	
 -160.0000	7.541E-11	5.663E-9	   20.0000	   27.0956	    1.4298	    0.0000	
 -165.0000	7.431E-11	4.815E-9	   20.0000	   27.0956	    1.4298	    0.0000	
 -170.0000	7.340E-11	5.526E-9	   20.0000	   27.0956	    1.4298	    0.0000	
 -175.0000	7.242E-11	5.458E-9	   20.0000	   27.0956	    1.4298	    0.0000	
 -180.0000	7.137E-11	4.457E-9	   20.0000	   27.0956	    1.4298	    0.0000	
 -185.0000	7.061E-11	4.094E-9	   20.0000	   27.0956	    1.4298	    0.0000	
 -190.0000	6.991E-11	5.345E-9	   20.0000	   27.0956	    1.4298	    0.0000	
 -195.0000	6.879E-11	4.137E-9	   20.0000	   27.0956	    1.4298	    0.0000	
 -200.0000	6.804E-11	4.345E-9	   20.0000	   27.0956	    1.4298	    0.0000	
 -205.0000	6.736E-11	3.682E-9	   20.0000	   27.0956	    1.4298	    0.0000	
 -210.0000	6.649E-11	2.670E-9	   20.0000	   27.0956	    1.4298	    0.0000	
 -215.0000	6.574E-11	2.866E-9	   20.0000	   27.0956	    1.4298	    0.0000	
 -220.0000	6.507E-11	4.152E-9	   20.0000	   27.0956	    1.4298	    0.0000	
 -225.0000	6.413E-11	3.712E-9	   20.0000	   27.0956	    1.4298	    0.0000	
 -230.0000	6.359E-11	4.066E-9	   20.0000	   27.0956	    1.4298	    0.0000	
 -235.0000	6.292E-11	3.284E-9	   20.0000	   27.0956	    1.4298	    0.0000	
 -240.0000	6.226E-11	3.204E-9	   20.0000	   27.0956	    1.4298	    0.0000	
 -245.0000	6.176E-11	3.820E-9	   20.0000	   27.0956	    1.4298	    0.0000	
 -250.0000	6.150E-11	2.611E-9	   20.0000	   27.0956	    1.4298	    0.0000	
 -255.0000	6.058E-11	4.939E-9	   20.0000	   27.0956	    1.4298	    0.0000	
 -260.0000	5.995E-11	2.907E-9	   20.0000	   27.0956	    1.4298	    0.0000	
 -265.0000	5.934E-11	3.942E-9	   20.0000	   27.0956	    1.4298	    0.0000	
 -270.0000	5.909E-11	2.173E-9	   20.0000	   27.0956	    1.4298	    0.0000	
 -275.0000	5.871E-11	2.424E-9	   20.0000	   27.0956	    1.4298	    0.0000	
 -280.0000	5.832E-11	3.672E-9	   20.0000	   27.0956	    1.4298	    0.0000	
 -285.0000	5.826E-11	2.654E-9	   20.0000	   27.0956	    1.4298	    0.0000	
 -290.0000	5.820E-11	2.132E-9	   20.0000	   27.0956	    1.4298	    0.0000	
 -295.0000	5.816E-11	4.046E-9	   20.0000	   27.0956	    1.4298	    0.0000	
 -300.0000	5.806E-11	2.042E-9	   20.0000	   27.0956	    1.4298	    0.0000	
 -305.0000	5.812E-11	3.464E-9	   20.0000	   27.0956	    1.4298	    0.0000	
 -310.0000	5.783E-11	2.566E-9	   20.0000	   27.0956	    1.4298	    0.0000	
 -315.0000	5.792E-11	2.226E-9	   20.0000	   27.0956	    1.4298	    0.0000	
 -320.0000	5.763E-11	2.174E-9	   20.0000	   27.0956	    1.4298	    0.0000	
 -325.0000	5.762E-11	1.127E-9	   20.0000	   27.0956	    1.4298	    0.0000	
 -330.0000	5.778E-11	2.881E-9	   20.0000	   27.0956	    1.4298	    0.0000	
 -335.0000	5.797E-11	2.142E-9	   20.0000	   27.0956	    1.4298	    0.0000	
 -340.0000	5.796E-11	1.511E-9	   20.0000	   27.0956	    1.4298	    0.0000	
 -345.0000	5.728E-11	3.585E-9	   20.0000	   27.0956	    1.4298	    0.0000	
 -350.0000	5.760E-11	2.663E-9	   20.0000	   27.0956	    1.4298	    0.0000	
 -355.0000	5.767E-11	3.307E-9	   20.0000	   27.0956	    1.4298	    0.0000	
 -360.0000	5.757E-11	3.121E-9	   20.0000	   27.0956	    1.4298	    0.0000	
 -365.0000	5.763E-11	3.829E-9	   20.0000	   27.0956	    1.4298	    0.0000	
 -370.0000	5.768E-11	5.987E-9	   20.0000	   27.0956	    1.4298	    0.0000	
 -375.0000	5.756E-11	3.228E-9	   20.0000	   27.0956	    1.4298	    0.0000	
 -380.0000	5.771E-11	1.387E-9	   20.0000	   27.0956	    1.4298	    0.0000	
 -385.0000	5.766E-11	4.322E-9	   20.0000	   27.0956	    1.4298	    0.0000	
 -390.0000	5.727E-11	3.948E-9	   20.0000	   27.0956	    1.4298	    0.0000	
 -395.0000	5.747E-11	1.759E-9	   20.0000	   27.0956	    1.4298	    0.0000	
 -400.0000	5.736E-11	2.971E-9	   20.0000	   27.0956	    1.4298	    0.0000	
 -410.0000	5.750E-11	2.962E-9	   20.0000	   27.0956	    1.4298	    0.0000	
 -420.0000	5.752E-11	4.323E-9	   20.0000	   27.0956	    1.4298	    0.0000	
 -430.0000	5.731E-11	2.572E-9	   20.0000	   27.0956	    1.4298	    0.0000	
 -440.0000	5.740E-11	4.444E-9	   20.0000	   27.0956	    1.4298	    0.0000	
 -450.0000	5.741E-11	3.314E-9	   20.0000	   27.0956	    1.4298	    0.0000	
 -460.0000	5.745E-11	2.785E-9	   20.0000	   27.0956	    1.4298	    0.0000	
 -470.0000	5.748E-11	1.730E-9	   20.0000	   27.0956	    1.4298	    0.0000	
 -480.0000	5.722E-11	3.759E-9	   20.0000	   27.0956	    1.4298	    0.0000	
 -490.0000	5.746E-11	3.888E-9	   20.0000	   27.0956	    1.4298	    0.0000	
 -500.0000	5.754E-11	2.074E-9	   20.0000	   27.0956	    1.4298	    0.0000	
 -510.0000	5.741E-11	2.623E-9	   20.0000	   27.0956	    1.4298	    0.0000	
 -520.0000	5.749E-11	4.410E-9	   20.0000	   27.0956	    1.4298	    0.0000	
 -530.0000	5.734E-11	3.956E-9	   20.0000	   27.0956	    1.4298	    0.0000	
 -540.0000	5.742E-11	2.118E-9	   20.0000	   27.0956	    1.4298	    0.0000	
 -550.0000	5.750E-11	2.744E-9	   20.0000	   27.0956	    1.4298	    0.0000	
 -560.0000	5.740E-11	4.159E-9	   20.0000	   27.0956	    1.4298	    0.0000	
 -570.0000	5.722E-11	1.319E-9	   20.0000	   27.0956	    1.4298	    0.0000	
 -580.0000	5.729E-11	3.013E-9	   20.0000	   27.0956	    1.4298	    0.0000	
 -590.0000	5.721E-11	1.768E-9	   20.0000	   27.0956	    1.4298	    0.0000	
 -600.0000	5.737E-11	2.926E-9	   20.0000	   27.0956	    1.4298	    0.0000	
