GCD Test
Bias: 5000.000000
IV_34343_015_PSS_HM_XX_DIODEHALF
Date/Time: 7/14/2021 4:55:05 PM
Sensor Name: DIODEHALF
Type: P
Annealing Status: Not Irradiated
Environment: 20C
Tester: Andrew Kent

Time Delay per Ramp Step (s): 0.500

CV Time Delay per Measurement (s) :0.500

AC Voltage (V): 0.500

Current Number of measurements per voltage: 1.000

IV Time Delay per Measurement (s) :0.000


BiasVoltage	Total Current_Avg	Total Current_0	Bias Current_Avg	Bias Current_0	Temperature	Air_Temp	Humidity	Dewpoint	
   -5.0000	4.8200E-10	4.8200E-10	-5.250997E-11	-5.250997E-11	   19.9575	   20.8798	   26.6309	    1.0078	
  -10.0000	3.3000E-10	3.3000E-10	-5.387889E-11	-5.387889E-11	   19.9138	   20.8827	   26.6420	    1.0160	
  -15.0000	2.5600E-10	2.5600E-10	-5.612642E-11	-5.612642E-11	   19.8906	   20.8743	   26.6256	    1.0003	
  -20.0000	1.3700E-10	1.3700E-10	-5.795575E-11	-5.795575E-11	   19.8803	   20.8647	   26.6354	    0.9972	
  -25.0000	9.6000E-11	9.6000E-11	-6.027277E-11	-6.027277E-11	   19.8906	   20.8748	   26.6297	    1.0028	
  -30.0000	1.3800E-10	1.3800E-10	-6.298599E-11	-6.298599E-11	   19.9215	   20.8656	   26.6297	    0.9950	
  -35.0000	1.2800E-10	1.2800E-10	-6.631666E-11	-6.631666E-11	   20.0142	   20.8656	   26.6297	    0.9950	
  -40.0000	1.6000E-11	1.6000E-11	-6.969866E-11	-6.969866E-11	   20.0142	   20.8714	   26.6341	    1.0023	
  -45.0000	-4.3000E-11	-4.3000E-11	-7.454638E-11	-7.454638E-11	   20.0837	   20.8780	   26.6423	    1.0122	
  -50.0000	2.8000E-11	2.8000E-11	-7.898807E-11	-7.898807E-11	   20.1660	   20.8780	   26.6385	    1.0122	
  -55.0000	-5.8000E-11	-5.8000E-11	-8.300095E-11	-8.300095E-11	   20.1892	   20.8780	   26.6335	    1.0102	
  -60.0000	-1.4300E-10	-1.4300E-10	-8.592215E-11	-8.592215E-11	   20.1892	   20.8797	   26.6354	    1.0090	
  -65.0000	-1.8700E-10	-1.8700E-10	-8.723771E-11	-8.723771E-11	   20.1892	   20.8873	   26.6354	    1.0165	
  -70.0000	-2.2800E-10	-2.2800E-10	-8.834915E-11	-8.834915E-11	   20.1583	   20.8784	   26.6287	    1.0055	
  -75.0000	-1.7300E-10	-1.7300E-10	-9.064971E-11	-9.064971E-11	   20.1145	   20.8865	   26.6357	    1.0159	
  -80.0000	-1.3300E-10	-1.3300E-10	-9.192471E-11	-9.192471E-11	   20.0708	   20.8832	   26.6347	    1.0127	
  -85.0000	-3.2900E-10	-3.2900E-10	-9.322745E-11	-9.322745E-11	   20.0193	   20.8843	   26.6199	    1.0058	
  -90.0000	-2.2400E-10	-2.2400E-10	-9.445807E-11	-9.445807E-11	   19.9755	   20.8778	   26.6157	    0.9982	
  -95.0000	-3.3300E-10	-3.3300E-10	-9.561495E-11	-9.561495E-11	   19.9344	   20.8778	   26.6237	    1.0023	
 -100.0000	-2.6000E-10	-2.6000E-10	-9.574247E-11	-9.574247E-11	   19.9138	   20.8692	   26.6256	    0.9959	
 -105.0000	-4.7100E-10	-4.7100E-10	-9.610565E-11	-9.610565E-11	   19.9061	   20.8617	   26.6297	    0.9916	
 -110.0000	-4.9900E-10	-4.9900E-10	-9.729984E-11	-9.729984E-11	   19.9266	   20.8617	   26.6278	    0.9916	
 -115.0000	-3.3000E-10	-3.3000E-10	-9.877570E-11	-9.877570E-11	   19.9266	   20.8617	   26.6278	    0.9907	
 -120.0000	-2.9600E-10	-2.9600E-10	-9.993240E-11	-9.993240E-11	   19.9704	   20.8618	   26.6376	    0.9959	
 -125.0000	-3.6200E-10	-3.6200E-10	-1.004606E-10	-1.004606E-10	   20.0116	   20.8672	   26.6401	    1.0018	
 -130.0000	-3.8700E-10	-3.8700E-10	-1.011729E-10	-1.011729E-10	   20.0631	   20.8674	   26.6335	    0.9985	
 -135.0000	-5.4500E-10	-5.4500E-10	-1.012112E-10	-1.012112E-10	   20.1042	   20.8740	   26.6300	    1.0023	
 -140.0000	-3.7000E-10	-3.7000E-10	-1.019065E-10	-1.019065E-10	   20.1403	   20.8728	   26.6382	    1.0056	
 -145.0000	-4.3000E-10	-4.3000E-10	-1.014423E-10	-1.014423E-10	   20.1557	   20.8703	   26.6287	    0.9985	
 -150.0000	-5.5400E-10	-5.5400E-10	-1.009266E-10	-1.009266E-10	   20.1480	   20.8801	   26.6262	    1.0056	
 -155.0000	-5.8900E-10	-5.8900E-10	-1.010329E-10	-1.010329E-10	   20.1248	   20.8733	   26.6249	    0.9991	
 -160.0000	-6.4900E-10	-6.4900E-10	-9.991809E-11	-9.991809E-11	   20.0888	   20.8739	   26.6221	    0.9982	
 -165.0000	-5.3100E-10	-5.3100E-10	-9.985496E-11	-9.985496E-11	   20.0476	   20.8702	   26.6230	    0.9954	
 -170.0000	-5.8000E-10	-5.8000E-10	-9.956627E-11	-9.956627E-11	   20.0064	   20.8768	   26.6322	    1.0059	
 -175.0000	-7.1200E-10	-7.1200E-10	-9.930691E-11	-9.930691E-11	   19.9601	   20.8743	   26.6458	    1.0108	
 -180.0000	-6.1200E-10	-6.1200E-10	-9.896062E-11	-9.896062E-11	   19.9086	   20.8743	   26.6436	    1.0108	
 -185.0000	-7.7700E-10	-7.7700E-10	-9.956893E-11	-9.956893E-11	   19.9086	   20.8815	   26.6436	    1.0158	
 -190.0000	-7.8900E-10	-7.8900E-10	-1.006484E-10	-1.006484E-10	   19.8906	   20.8719	   26.6404	    1.0059	
 -195.0000	-7.0200E-10	-7.0200E-10	-1.011395E-10	-1.011395E-10	   19.8880	   20.8677	   26.6439	    1.0042	
 -200.0000	-8.1400E-10	-8.1400E-10	-1.018271E-10	-1.018271E-10	   19.9035	   20.8776	   26.6420	    1.0117	
 -205.0000	-6.9000E-10	-6.9000E-10	-1.031377E-10	-1.031377E-10	   19.9318	   20.8634	   26.6388	    0.9979	
 -210.0000	-7.1400E-10	-7.1400E-10	-1.044576E-10	-1.044576E-10	   20.0013	   20.8634	   26.6366	    0.9979	
 -215.0000	-7.2900E-10	-7.2900E-10	-1.055865E-10	-1.055865E-10	   20.0013	   20.8618	   26.6366	    0.9954	
 -220.0000	-7.0600E-10	-7.0600E-10	-1.060226E-10	-1.060226E-10	   20.0631	   20.8719	   26.6417	    1.0066	
 -225.0000	-8.4600E-10	-8.4600E-10	-1.070027E-10	-1.070027E-10	   20.1042	   20.8738	   26.6423	    1.0086	
 -230.0000	-8.5400E-10	-8.5400E-10	-1.071172E-10	-1.071172E-10	   20.1480	   20.8736	   26.6338	    1.0039	
 -235.0000	-7.6800E-10	-7.6800E-10	-1.073967E-10	-1.073967E-10	   20.1686	   20.8736	   26.6230	    1.0039	
 -240.0000	-9.3300E-10	-9.3300E-10	-1.071634E-10	-1.071634E-10	   20.1686	   20.8736	   26.6230	    0.9983	
 -245.0000	-8.2400E-10	-8.2400E-10	-1.074835E-10	-1.074835E-10	   20.1531	   20.8649	   26.6227	    0.9908	
 -250.0000	-8.3500E-10	-8.3500E-10	-1.061375E-10	-1.061375E-10	   20.1248	   20.8721	   26.6202	    0.9956	
 -255.0000	-8.3200E-10	-8.3200E-10	-1.057216E-10	-1.057216E-10	   20.0605	   20.8721	   26.6246	    0.9956	
 -260.0000	-8.3800E-10	-8.3800E-10	-1.057199E-10	-1.057199E-10	   20.0605	   20.8633	   26.6246	    0.9904	
 -265.0000	-8.7700E-10	-8.7700E-10	-1.052760E-10	-1.052760E-10	   20.0116	   20.8621	   26.6192	    0.9866	
 -270.0000	-8.7600E-10	-8.7600E-10	-1.051546E-10	-1.051546E-10	   19.9653	   20.8623	   26.6376	    0.9963	
 -275.0000	-9.2100E-10	-9.2100E-10	-1.053227E-10	-1.053227E-10	   19.9164	   20.8623	   26.6224	    0.9963	
 -280.0000	-9.3300E-10	-9.3300E-10	-1.054193E-10	-1.054193E-10	   19.9164	   20.8610	   26.6224	    0.9873	
 -285.0000	-1.0220E-9	-1.0220E-9	-1.066733E-10	-1.066733E-10	   19.8958	   20.8556	   26.6293	    0.9863	
 -290.0000	-1.0570E-9	-1.0570E-9	-1.073345E-10	-1.073345E-10	   19.8906	   20.8521	   26.6205	    0.9787	
 -295.0000	-9.7400E-10	-9.7400E-10	-1.082685E-10	-1.082685E-10	   19.9189	   20.8521	   26.6186	    0.9787	
 -300.0000	-1.0190E-9	-1.0190E-9	-1.087353E-10	-1.087353E-10	   19.9189	   20.8521	   26.6186	    0.9777	
 -305.0000	-1.0390E-9	-1.0390E-9	-1.095395E-10	-1.095395E-10	   19.9627	   20.8494	   26.6303	    0.9815	
 -310.0000	-1.0230E-9	-1.0230E-9	-1.102431E-10	-1.102431E-10	   20.0116	   20.8531	   26.6224	    0.9805	
 -315.0000	-1.0450E-9	-1.0450E-9	-1.112450E-10	-1.112450E-10	   20.0888	   20.8531	   26.6259	    0.9805	
 -320.0000	-1.0620E-9	-1.0620E-9	-1.119647E-10	-1.119647E-10	   20.0888	   20.8531	   26.6259	    0.9824	
 -325.0000	-1.0510E-9	-1.0510E-9	-1.125768E-10	-1.125768E-10	   20.1326	   20.8595	   26.6249	    0.9873	
 -330.0000	-1.0800E-9	-1.0800E-9	-1.115449E-10	-1.115449E-10	   20.1634	   20.8558	   26.6262	    0.9848	
 -335.0000	-1.2220E-9	-1.2220E-9	-1.109896E-10	-1.109896E-10	   20.1763	   20.8645	   26.6271	    0.9928	
 -340.0000	-1.1410E-9	-1.1410E-9	-1.110999E-10	-1.110999E-10	   20.1557	   20.8645	   26.6237	    0.9928	
 -345.0000	-1.1060E-9	-1.1060E-9	-1.103011E-10	-1.103011E-10	   20.1557	   20.8645	   26.6237	    0.9909	
 -350.0000	-1.1280E-9	-1.1280E-9	-1.100371E-10	-1.100371E-10	   20.1145	   20.8607	   26.6142	    0.9828	
 -355.0000	-1.2960E-9	-1.2960E-9	-1.090981E-10	-1.090981E-10	   20.0708	   20.8570	   26.6148	    0.9799	
 -360.0000	-1.1220E-9	-1.1220E-9	-1.090472E-10	-1.090472E-10	   20.0013	   20.8570	   26.6154	    0.9799	
 -365.0000	-1.1430E-9	-1.1430E-9	-1.088626E-10	-1.088626E-10	   20.0013	   20.8570	   26.6154	    0.9802	
 -370.0000	-1.1940E-9	-1.1940E-9	-1.091767E-10	-1.091767E-10	   19.9550	   20.8566	   26.6259	    0.9853	
 -375.0000	-1.1670E-9	-1.1670E-9	-1.090153E-10	-1.090153E-10	   19.9112	   20.8546	   26.6167	    0.9789	
 -380.0000	-1.1540E-9	-1.1540E-9	-1.094912E-10	-1.094912E-10	   19.8958	   20.8546	   26.6199	    0.9789	
 -385.0000	-1.2380E-9	-1.2380E-9	-1.097640E-10	-1.097640E-10	   19.8958	   20.8460	   26.6199	    0.9732	
 -390.0000	-1.2450E-9	-1.2450E-9	-1.108573E-10	-1.108573E-10	   19.9009	   20.8464	   26.6281	    0.9778	
 -395.0000	-1.4290E-9	-1.4290E-9	-1.122637E-10	-1.122637E-10	   19.9241	   20.8497	   26.6233	    0.9782	
 -400.0000	-1.3970E-9	-1.3970E-9	-1.126098E-10	-1.126098E-10	   19.9858	   20.8497	   26.6505	    0.9782	
 -410.0000	-1.3790E-9	-1.3790E-9	-1.140649E-10	-1.140649E-10	   19.9858	   20.8497	   26.6505	    0.9923	
 -420.0000	-1.4670E-9	-1.4670E-9	-1.146970E-10	-1.146970E-10	   20.0450	   20.8497	   26.6622	    0.9984	
 -430.0000	-1.6310E-9	-1.6310E-9	-1.154721E-10	-1.154721E-10	   20.0914	   20.8545	   26.6622	    1.0025	
 -440.0000	-1.4990E-9	-1.4990E-9	-1.153868E-10	-1.153868E-10	   20.1531	   20.8545	   26.6591	    1.0025	
 -450.0000	-1.6000E-9	-1.6000E-9	-1.153566E-10	-1.153566E-10	   20.1531	   20.8569	   26.6591	    1.0029	
 -460.0000	-1.6070E-9	-1.6070E-9	-1.151299E-10	-1.151299E-10	   20.1737	   20.8554	   26.6648	    1.0046	
 -470.0000	-1.6520E-9	-1.6520E-9	-1.144702E-10	-1.144702E-10	   20.1634	   20.8572	   26.6423	    0.9945	
 -480.0000	-1.7280E-9	-1.7280E-9	-1.144831E-10	-1.144831E-10	   20.1634	   20.8572	   26.6423	    0.9945	
 -490.0000	-1.7380E-9	-1.7380E-9	-1.139317E-10	-1.139317E-10	   20.1274	   20.8603	   26.6316	    0.9915	
 -500.0000	-1.7750E-9	-1.7750E-9	-1.135619E-10	-1.135619E-10	   20.0888	   20.8629	   26.6319	    0.9939	
 -510.0000	-1.8150E-9	-1.8150E-9	-1.133771E-10	-1.133771E-10	   20.0425	   20.8608	   26.6303	    0.9912	
 -520.0000	-1.9210E-9	-1.9210E-9	-1.130078E-10	-1.130078E-10	   19.9781	   20.8608	   26.6322	    0.9912	
 -530.0000	-1.9120E-9	-1.9120E-9	-1.131956E-10	-1.131956E-10	   19.9781	   20.8554	   26.6322	    0.9876	
 -540.0000	-1.9410E-9	-1.9410E-9	-1.133878E-10	-1.133878E-10	   19.9369	   20.8554	   26.6328	    0.9880	
 -550.0000	-2.0220E-9	-2.0220E-9	-1.136448E-10	-1.136448E-10	   19.9009	   20.8554	   26.6265	    0.9880	
 -560.0000	-2.0570E-9	-2.0570E-9	-1.145550E-10	-1.145550E-10	   19.9009	   20.8525	   26.6265	    0.9822	
 -570.0000	-2.0590E-9	-2.0590E-9	-1.145246E-10	-1.145246E-10	   19.8958	   20.8543	   26.6385	    0.9900	
 -580.0000	-2.1550E-9	-2.1550E-9	-1.157553E-10	-1.157553E-10	   19.9086	   20.8469	   26.6518	    0.9906	
 -590.0000	-2.2260E-9	-2.2260E-9	-1.168080E-10	-1.168080E-10	   19.9395	   20.8495	   26.6591	    0.9966	
 -600.0000	-2.2290E-9	-2.2290E-9	-1.176942E-10	-1.176942E-10	   19.9961	   20.8495	   26.6569	    0.9966	
 -610.0000	-2.2450E-9	-2.2450E-9	-1.188189E-10	-1.188189E-10	   19.9961	   20.8495	   26.6569	    0.9954	
 -620.0000	-2.2630E-9	-2.2630E-9	-1.197465E-10	-1.197465E-10	   20.0605	   20.8508	   26.6531	    0.9946	
 -630.0000	-2.2330E-9	-2.2330E-9	-1.208112E-10	-1.208112E-10	   20.1377	   20.8508	   26.6556	    0.9946	
 -640.0000	-2.3040E-9	-2.3040E-9	-1.213333E-10	-1.213333E-10	   20.1377	   20.8534	   26.6556	    0.9981	
 -650.0000	-2.2790E-9	-2.2790E-9	-1.204439E-10	-1.204439E-10	   20.1712	   20.8537	   26.6398	    0.9901	
 -660.0000	-2.2990E-9	-2.2990E-9	-1.205647E-10	-1.205647E-10	   20.1840	   20.8598	   26.6379	    0.9943	
 -670.0000	-2.3520E-9	-2.3520E-9	-1.202788E-10	-1.202788E-10	   20.1789	   20.8550	   26.6328	    0.9876	
 -680.0000	-2.4050E-9	-2.4050E-9	-1.192905E-10	-1.192905E-10	   20.1351	   20.8550	   26.6135	    0.9876	
 -690.0000	-2.3960E-9	-2.3960E-9	-1.190796E-10	-1.190796E-10	   20.1351	   20.8479	   26.6135	    0.9715	
 -700.0000	-2.4770E-9	-2.4770E-9	-1.182049E-10	-1.182049E-10	   20.0914	   20.8506	   26.6259	    0.9802	
 -710.0000	-2.5810E-9	-2.5810E-9	-1.181091E-10	-1.181091E-10	   20.0399	   20.8438	   26.6180	    0.9703	
 -720.0000	-2.5070E-9	-2.5070E-9	-1.177887E-10	-1.177887E-10	   19.9781	   20.8438	   26.6278	    0.9703	
 -730.0000	-2.5140E-9	-2.5140E-9	-1.181491E-10	-1.181491E-10	   19.9781	   20.8438	   26.6278	    0.9754	
 -740.0000	-2.5930E-9	-2.5930E-9	-1.179291E-10	-1.179291E-10	   19.9395	   20.8521	   26.6306	    0.9840	
 -750.0000	-2.6560E-9	-2.6560E-9	-1.187270E-10	-1.187270E-10	   19.9061	   20.8410	   26.6205	    0.9693	
 -760.0000	-2.6400E-9	-2.6400E-9	-1.190191E-10	-1.190191E-10	   19.9061	   20.8410	   26.6205	    0.9693	
 -770.0000	-2.6760E-9	-2.6760E-9	-1.200130E-10	-1.200130E-10	   19.9086	   20.8369	   26.6205	    0.9658	
 -780.0000	-2.6990E-9	-2.6990E-9	-1.209629E-10	-1.209629E-10	   19.9241	   20.8367	   26.6170	    0.9637	
 -790.0000	-2.7410E-9	-2.7410E-9	-1.220363E-10	-1.220363E-10	   19.9550	   20.8360	   26.6221	    0.9658	
 -800.0000	-2.8890E-9	-2.8890E-9	-1.230648E-10	-1.230648E-10	   20.0142	   20.8360	   26.6189	    0.9658	
 -810.0000	-2.9280E-9	-2.9280E-9	-1.239625E-10	-1.239625E-10	   20.0142	   20.8303	   26.6189	    0.9593	
 -820.0000	-3.0910E-9	-3.0910E-9	-1.248081E-10	-1.248081E-10	   20.0656	   20.8404	   26.6287	    0.9730	
 -830.0000	-2.8430E-9	-2.8430E-9	-1.255287E-10	-1.255287E-10	   20.1300	   20.8404	   26.6233	    0.9730	
 -840.0000	-3.0150E-9	-3.0150E-9	-1.254105E-10	-1.254105E-10	   20.1300	   20.8404	   26.6233	    0.9702	
 -850.0000	-3.0680E-9	-3.0680E-9	-1.259522E-10	-1.259522E-10	   20.1609	   20.8472	   26.6186	    0.9735	
 -860.0000	-3.0830E-9	-3.0830E-9	-1.257807E-10	-1.257807E-10	   20.1686	   20.8472	   26.6186	    0.9735	
 -870.0000	-3.0090E-9	-3.0090E-9	-1.254977E-10	-1.254977E-10	   20.1686	   20.8499	   26.6186	    0.9759	
 -880.0000	-3.0670E-9	-3.0670E-9	-1.255470E-10	-1.255470E-10	   20.1480	   20.8463	   26.6151	    0.9709	
 -890.0000	-3.0760E-9	-3.0760E-9	-1.251383E-10	-1.251383E-10	   20.0965	   20.8463	   26.6104	    0.9709	
 -900.0000	-3.0060E-9	-3.0060E-9	-1.243206E-10	-1.243206E-10	   20.0965	   20.8490	   26.6104	    0.9708	
 -910.0000	-2.9910E-9	-2.9910E-9	-1.238790E-10	-1.238790E-10	   20.0399	   20.8413	   26.6151	    0.9667	
 -920.0000	-3.2400E-9	-3.2400E-9	-1.240666E-10	-1.240666E-10	   19.9936	   20.8438	   26.6018	    0.9619	
 -930.0000	-3.2160E-9	-3.2160E-9	-1.243787E-10	-1.243787E-10	   19.9292	   20.8438	   26.6072	    0.9619	
 -940.0000	-3.1250E-9	-3.1250E-9	-1.249872E-10	-1.249872E-10	   19.9292	   20.8424	   26.6072	    0.9635	
 -950.0000	-3.3040E-9	-3.3040E-9	-1.251718E-10	-1.251718E-10	   19.9035	   20.8315	   26.6069	    0.9540	
 -960.0000	-3.1680E-9	-3.1680E-9	-1.258355E-10	-1.258355E-10	   19.8880	   20.8315	   26.5977	    0.9540	
 -970.0000	-3.3180E-9	-3.3180E-9	-1.270239E-10	-1.270239E-10	   19.8880	   20.8242	   26.5977	    0.9431	
 -980.0000	-3.4000E-9	-3.4000E-9	-1.280131E-10	-1.280131E-10	   19.9061	   20.8194	   26.6085	    0.9446	
 -990.0000	-3.4550E-9	-3.4550E-9	-1.297110E-10	-1.297110E-10	   19.9318	   20.8184	   26.6047	    0.9418	
-1000.0000	-3.5570E-9	-3.5570E-9	-1.309306E-10	-1.309306E-10	   19.9910	   20.8184	   26.6025	    0.9418	
