GCD Test
Bias: 5000.000000
CV_34341_024_PSS_HM_XX_DIODEHALF_Biased_Box
Date/Time: 7/23/2021 1:54:54 PM
Sensor Name: DIODEHALF
Type: P
Annealing Status: Not Irradiated
Environment: 20C
Tester: Andrew Kent

Time Delay per Ramp Step (s): 0.500

CV Time Delay per Measurement (s) :0.500

AC Voltage (V): 0.500

Current Number of measurements per voltage: 1.000

IV Time Delay per Measurement (s) :0.000


BiasVoltage	LCR_Cp_freqNaN	LCR_Rp_freqNaN	Temperature	Air_Temp	Humidity	Dewpoint	
   -5.0000	3.313E-11	3.543E+8	   19.9858	   20.7302	   33.0380	    3.9049	
  -10.0000	2.514E-11	5.021E+8	   19.9653	   20.7271	   32.8634	    3.8269	
  -15.0000	2.146E-11	6.288E+8	   19.9575	   20.7567	   32.7052	    3.7843	
  -20.0000	1.921E-11	7.264E+8	   19.9575	   20.7567	   32.5395	    3.7123	
  -25.0000	1.763E-11	7.714E+8	   19.9704	   20.7643	   32.4266	    3.6696	
  -30.0000	1.650E-11	8.452E+8	   19.9704	   20.7643	   32.4266	    3.6696	
  -35.0000	1.556E-11	8.672E+8	   19.9910	   20.7299	   32.3276	    3.5963	
  -40.0000	1.477E-11	9.423E+8	   20.0064	   20.7132	   32.2612	    3.5525	
  -45.0000	1.410E-11	9.801E+8	   20.0245	   20.7529	   32.2334	    3.5750	
  -50.0000	1.350E-11	1.038E+9	   20.0347	   20.7259	   32.1875	    3.5312	
  -55.0000	1.277E-11	9.698E+8	   20.0450	   20.7486	   32.1521	    3.5355	
  -60.0000	1.217E-11	1.080E+9	   20.0450	   20.7728	   32.1205	    3.5426	
  -65.0000	1.184E-11	1.214E+9	   20.0425	   20.7349	   32.0923	    3.4971	
  -70.0000	1.153E-11	1.110E+9	   20.0193	   20.7204	   32.0468	    3.4644	
  -75.0000	1.126E-11	1.212E+9	   20.0013	   20.6957	   32.0171	    3.4298	
  -80.0000	1.101E-11	1.197E+9	   19.9858	   20.6979	   32.0158	    3.4311	
  -85.0000	1.079E-11	1.293E+9	   19.9678	   20.7035	   31.9981	    3.4281	
  -90.0000	1.060E-11	1.182E+9	   19.9575	   20.6914	   31.9946	    3.4161	
  -95.0000	1.042E-11	1.272E+9	   19.9524	   20.7131	   31.9858	    3.4311	
 -100.0000	1.026E-11	1.245E+9	   19.9498	   20.6796	   31.9703	    3.3950	
 -105.0000	1.011E-11	1.036E+9	   19.9575	   20.6581	   31.9627	    3.3729	
 -110.0000	9.926E-12	5.786E+8	   19.9678	   20.7008	   31.9564	    3.4073	
 -115.0000	9.517E-12	4.211E+8	   19.9884	   20.6787	   31.9630	    3.3910	
 -120.0000	9.204E-12	5.835E+8	   20.0090	   20.6764	   31.9456	    3.3813	
 -125.0000	9.050E-12	4.751E+8	   20.0296	   20.6633	   31.9538	    3.3735	
 -130.0000	8.733E-12	2.576E+8	   20.0399	   20.6899	   31.9390	    3.3901	
 -135.0000	8.181E-12	2.346E+8	   20.0399	   20.6899	   31.9390	    3.3901	
 -140.0000	7.746E-12	3.728E+8	   20.0502	   20.6629	   31.9440	    3.3688	
 -145.0000	7.586E-12	6.901E+8	   20.0425	   20.6753	   31.9311	    3.3739	
 -150.0000	7.516E-12	1.086E+9	   20.0296	   20.6920	   31.9336	    3.3896	
 -155.0000	7.455E-12	1.378E+9	   20.0116	   20.6867	   31.9374	    3.3866	
 -160.0000	7.407E-12	1.447E+9	   19.9910	   20.6794	   31.9352	    3.3792	
 -165.0000	7.356E-12	1.340E+9	   19.9730	   20.6718	   31.9409	    3.3752	
 -170.0000	7.308E-12	1.359E+9	   19.9730	   20.6718	   31.9409	    3.3752	
 -175.0000	7.271E-12	1.581E+9	   19.9524	   20.6550	   31.9292	    3.3553	
 -180.0000	7.229E-12	1.428E+9	   19.9447	   20.6528	   31.9380	    3.3573	
 -185.0000	7.185E-12	1.637E+9	   19.9550	   20.6568	   31.9434	    3.3632	
 -190.0000	7.152E-12	1.588E+9	   19.9704	   20.6793	   31.9453	    3.3837	
 -195.0000	7.106E-12	1.428E+9	   20.0013	   20.6518	   31.9453	    3.3597	
 -200.0000	7.077E-12	1.551E+9	   20.0322	   20.6328	   31.9592	    3.3493	
 -205.0000	7.033E-12	1.522E+9	   20.0553	   20.6781	   31.9541	    3.3866	
 -210.0000	7.000E-12	1.376E+9	   20.0682	   20.6560	   31.9557	    3.3680	
 -215.0000	6.966E-12	1.405E+9	   20.0734	   20.6627	   31.9548	    3.3734	
 -220.0000	6.929E-12	1.453E+9	   20.0656	   20.6662	   31.9592	    3.3785	
 -225.0000	6.901E-12	1.548E+9	   20.0528	   20.6199	   31.9602	    3.3385	
 -230.0000	6.882E-12	1.462E+9	   20.0270	   20.6377	   31.9690	    3.3579	
 -235.0000	6.863E-12	1.438E+9	   19.9858	   20.6449	   31.9611	    3.3607	
 -240.0000	6.841E-12	1.509E+9	   19.9858	   20.6449	   31.9611	    3.3607	
 -245.0000	6.841E-12	1.495E+9	   19.9447	   20.6390	   31.9655	    3.3576	
 -250.0000	6.830E-12	1.600E+9	   19.9241	   20.6294	   31.9709	    3.3516	
 -255.0000	6.827E-12	1.539E+9	   19.9086	   20.6294	   31.9734	    3.3527	
 -260.0000	6.823E-12	1.619E+9	   19.9138	   20.6597	   31.9747	    3.3796	
 -265.0000	6.817E-12	1.688E+9	   19.9318	   20.6659	   31.9788	    3.3868	
 -270.0000	6.818E-12	1.571E+9	   19.9601	   20.6268	   31.9864	    3.3561	
 -275.0000	6.806E-12	1.647E+9	   19.9936	   20.6528	   31.9836	    3.3775	
 -280.0000	6.808E-12	1.687E+9	   20.0656	   20.6290	   31.9880	    3.3588	
 -285.0000	6.806E-12	1.454E+9	   20.0888	   20.6290	   31.9949	    3.3588	
 -290.0000	6.804E-12	1.527E+9	   20.0888	   20.6372	   31.9949	    3.3689	
 -295.0000	6.798E-12	1.629E+9	   20.1042	   20.6332	   31.9956	    3.3658	
 -300.0000	6.796E-12	1.520E+9	   20.0914	   20.6216	   32.0028	    3.3588	
 -305.0000	6.794E-12	1.603E+9	   20.0708	   20.5982	   31.9864	    3.3312	
 -310.0000	6.797E-12	1.538E+9	   20.0399	   20.6322	   31.9940	    3.3642	
 -315.0000	6.793E-12	1.687E+9	   20.0013	   20.6381	   31.9927	    3.3687	
 -320.0000	6.788E-12	1.497E+9	   19.9653	   20.6491	   31.9972	    3.3803	
 -325.0000	6.794E-12	1.609E+9	   19.9266	   20.6491	   32.0019	    3.3824	
 -330.0000	6.787E-12	1.454E+9	   19.9035	   20.6272	   32.0013	    3.3631	
 -335.0000	6.782E-12	1.601E+9	   19.8906	   20.6354	   32.0038	    3.3713	
 -340.0000	6.775E-12	1.654E+9	   19.8906	   20.6068	   32.0149	    3.3513	
 -345.0000	6.782E-12	1.522E+9	   19.9112	   20.6222	   32.0038	    3.3598	
 -350.0000	6.778E-12	1.690E+9	   19.9395	   20.6003	   32.0127	    3.3447	
 -355.0000	6.777E-12	1.564E+9	   20.0090	   20.5700	   32.0225	    3.3225	
 -360.0000	6.774E-12	1.493E+9	   20.0708	   20.5700	   32.0168	    3.3200	
 -365.0000	6.775E-12	1.738E+9	   20.0708	   20.5700	   32.0168	    3.3200	
 -370.0000	6.779E-12	1.749E+9	   20.1300	   20.6113	   32.0136	    3.3547	
 -375.0000	6.771E-12	1.583E+9	   20.1300	   20.6113	   32.0136	    3.3547	
 -380.0000	6.768E-12	1.698E+9	   20.1197	   20.6125	   32.0250	    3.3607	
 -385.0000	6.763E-12	1.560E+9	   20.0888	   20.5723	   32.0427	    3.3335	
 -390.0000	6.768E-12	1.807E+9	   19.9653	   20.5841	   32.0383	    3.3418	
 -395.0000	6.767E-12	1.798E+9	   19.9164	   20.6060	   32.0395	    3.3615	
 -400.0000	6.763E-12	1.709E+9	   19.8777	   20.5873	   32.0367	    3.3439	
 -410.0000	6.761E-12	1.574E+9	   19.8546	   20.6012	   32.0424	    3.3585	
 -420.0000	6.759E-12	1.613E+9	   19.8546	   20.5595	   32.0493	    3.3252	
 -430.0000	6.766E-12	1.651E+9	   19.8726	   20.5848	   32.0617	    3.3528	
 -440.0000	6.755E-12	1.771E+9	   19.9138	   20.5938	   32.0664	    3.3627	
 -450.0000	6.751E-12	1.689E+9	   19.9833	   20.5938	   32.0683	    3.3635	
 -460.0000	6.759E-12	1.788E+9	   20.0399	   20.5887	   32.0806	    3.3645	
 -470.0000	6.746E-12	1.717E+9	   20.0965	   20.5675	   32.0854	    3.3481	
 -480.0000	6.749E-12	1.737E+9	   20.1326	   20.5939	   32.0841	    3.3706	
 -490.0000	6.752E-12	1.642E+9	   20.1506	   20.5827	   32.0889	    3.3629	
 -500.0000	6.755E-12	1.700E+9	   20.1480	   20.5814	   32.0813	    3.3584	
 -510.0000	6.746E-12	1.591E+9	   20.1248	   20.5790	   32.0955	    3.3627	
 -520.0000	6.752E-12	1.648E+9	   20.0811	   20.5479	   32.0987	    3.3369	
 -530.0000	6.747E-12	1.660E+9	   20.0296	   20.5775	   32.1066	    3.3662	
 -540.0000	6.744E-12	1.804E+9	   19.9678	   20.5724	   32.0984	    3.3581	
 -550.0000	6.752E-12	1.733E+9	   19.9138	   20.5755	   32.1104	    3.3661	
 -560.0000	6.744E-12	1.744E+9	   19.8726	   20.5949	   32.1107	    3.3832	
 -570.0000	6.749E-12	1.818E+9	   19.8494	   20.5655	   32.1167	    3.3602	
 -580.0000	6.748E-12	1.763E+9	   19.8494	   20.5553	   32.1259	    3.3553	
 -590.0000	6.744E-12	1.713E+9	   19.8700	   20.5417	   32.1382	    3.3489	
 -600.0000	6.752E-12	1.983E+9	   19.9215	   20.5538	   32.1388	    3.3598	
