GCD Test
Bias: 5000.000000
IV_34252_009_PSS_HM_XX_DIODEHALFPSTOP_PCB
Date/Time: 9/14/2021 12:05:58 PM
Sensor Name: DIODEHALFPSTOP
Type: P
Annealing Status: Not Irradiated and Not Annealed
Environment: 20C
Tester: Andrew Kent

Time Delay per Ramp Step (s): 0.500

CV Time Delay per Measurement (s) :0.500

AC Voltage (V): 0.500

Current Number of measurements per voltage: 1.000

IV Time Delay per Measurement (s) :0.000


BiasVoltage	Total Current_Avg	Total Current_0	Bias Current_Avg	Bias Current_0	Temperature	Air_Temp	Humidity	Dewpoint	
   -5.0000	6.3000E-11	6.3000E-11	5.609747E-10	5.609747E-10	   20.0656	   21.9351	    7.1319	  -15.1940	
  -10.0000	-8.0000E-11	-8.0000E-11	4.725027E-10	4.725027E-10	   20.0656	   21.9109	    7.1319	  -15.2139	
  -15.0000	-1.8600E-10	-1.8600E-10	3.153640E-10	3.153640E-10	   20.0656	   21.9288	    7.1398	  -15.1874	
  -20.0000	-3.0000E-10	-3.0000E-10	2.938479E-10	2.938479E-10	   20.0682	   21.9407	    7.1452	  -15.1696	
  -25.0000	-2.3800E-10	-2.3800E-10	2.596882E-10	2.596882E-10	   20.0656	   21.9407	    7.1376	  -15.1696	
  -30.0000	-4.0000E-10	-4.0000E-10	2.903464E-10	2.903464E-10	   20.0656	   21.8946	    7.1376	  -15.2163	
  -35.0000	-4.3200E-10	-4.3200E-10	3.092963E-10	3.092963E-10	   20.0656	   21.8946	    7.1490	  -15.2163	
  -40.0000	-4.6000E-10	-4.6000E-10	2.841729E-10	2.841729E-10	   20.0656	   21.9579	    7.1490	  -15.1505	
  -45.0000	-5.1200E-10	-5.1200E-10	2.666360E-10	2.666360E-10	   20.0656	   21.9448	    7.1420	  -15.1719	
  -50.0000	-4.7000E-10	-4.7000E-10	2.705478E-10	2.705478E-10	   20.0656	   21.9448	    7.1467	  -15.1719	
  -55.0000	-4.5900E-10	-4.5900E-10	2.790152E-10	2.790152E-10	   20.0656	   21.9650	    7.1467	  -15.1491	
  -60.0000	-4.9900E-10	-4.9900E-10	2.474196E-10	2.474196E-10	   20.0656	   21.9650	    7.1455	  -15.1491	
  -65.0000	-5.2500E-10	-5.2500E-10	2.097558E-10	2.097558E-10	   20.0656	   21.9603	    7.1455	  -15.1546	
  -70.0000	-5.5100E-10	-5.5100E-10	2.505496E-10	2.505496E-10	   20.0656	   21.9052	    7.1524	  -15.1834	
  -75.0000	-6.2700E-10	-6.2700E-10	2.220809E-10	2.220809E-10	   20.0656	   21.9052	    7.1417	  -15.1834	
  -80.0000	-7.0500E-10	-7.0500E-10	2.426382E-10	2.426382E-10	   20.0656	   21.9360	    7.1417	  -15.1789	
  -85.0000	-6.5300E-10	-6.5300E-10	1.730337E-10	1.730337E-10	   20.0631	   21.9508	    7.1505	  -15.1531	
  -90.0000	-6.6700E-10	-6.6700E-10	2.009143E-10	2.009143E-10	   20.0631	   21.9508	    7.1452	  -15.1531	
  -95.0000	-6.9300E-10	-6.9300E-10	1.608323E-10	1.608323E-10	   20.0631	   21.9455	    7.1452	  -15.1661	
 -100.0000	-7.3800E-10	-7.3800E-10	1.461537E-10	1.461537E-10	   20.0656	   21.9377	    7.1448	  -15.1723	
 -105.0000	-8.3000E-10	-8.3000E-10	1.651338E-10	1.651338E-10	   20.0656	   21.9377	    7.1448	  -15.1723	
 -110.0000	-8.1500E-10	-8.1500E-10	1.651326E-10	1.651326E-10	   20.0656	   21.9573	    7.1565	  -15.1382	
 -115.0000	-7.8000E-10	-7.8000E-10	1.486242E-10	1.486242E-10	   20.0631	   21.9647	    7.1502	  -15.1503	
 -120.0000	-8.0400E-10	-8.0400E-10	1.699180E-10	1.699180E-10	   20.0656	   21.9647	    7.1429	  -15.1434	
 -125.0000	-8.5800E-10	-8.5800E-10	1.841365E-10	1.841365E-10	   20.0656	   21.8925	    7.1426	  -15.2088	
 -130.0000	-8.6600E-10	-8.6600E-10	1.570647E-10	1.570647E-10	   20.0656	   21.9479	    7.1404	  -15.1686	
 -135.0000	-8.7000E-10	-8.7000E-10	1.838069E-10	1.838069E-10	   20.0656	   21.9462	    7.1455	  -15.1736	
 -140.0000	-9.0400E-10	-9.0400E-10	1.790956E-10	1.790956E-10	   20.0656	   21.9508	    7.1455	  -15.1616	
 -145.0000	-9.3200E-10	-9.3200E-10	1.665102E-10	1.665102E-10	   20.0656	   21.9534	    7.1385	  -15.1715	
 -150.0000	-9.5000E-10	-9.5000E-10	1.689255E-10	1.689255E-10	   20.0631	   21.9711	    7.1445	  -15.1483	
 -155.0000	-9.7200E-10	-9.7200E-10	1.742594E-10	1.742594E-10	   20.0656	   21.9946	    7.1464	  -15.1278	
 -160.0000	-1.0190E-9	-1.0190E-9	1.623460E-10	1.623460E-10	   20.0656	   21.8971	    7.1455	  -15.2011	
 -165.0000	-1.0130E-9	-1.0130E-9	1.746649E-10	1.746649E-10	   20.0656	   22.0031	    7.1376	  -15.1365	
 -170.0000	-1.0550E-9	-1.0550E-9	1.624440E-10	1.624440E-10	   20.0656	   21.9502	    7.1388	  -15.1733	
 -175.0000	-1.0840E-9	-1.0840E-9	1.391237E-10	1.391237E-10	   20.0631	   21.9594	    7.1429	  -15.1596	
 -180.0000	-1.1810E-9	-1.1810E-9	1.630144E-10	1.630144E-10	   20.0656	   21.9420	    7.1335	  -15.1884	
 -185.0000	-1.1960E-9	-1.1960E-9	1.556441E-10	1.556441E-10	   20.0656	   21.9333	    7.1388	  -15.1857	
 -190.0000	-1.1790E-9	-1.1790E-9	1.650017E-10	1.650017E-10	   20.0656	   21.9699	    7.1350	  -15.1652	
 -195.0000	-1.2340E-9	-1.2340E-9	1.602164E-10	1.602164E-10	   20.0656	   21.9111	    7.1398	  -15.2005	
 -200.0000	-1.1810E-9	-1.1810E-9	1.379782E-10	1.379782E-10	   20.0656	   21.9403	    7.1360	  -15.1854	
 -205.0000	-1.2940E-9	-1.2940E-9	1.743406E-10	1.743406E-10	   20.0631	   21.9780	    7.1233	  -15.1790	
 -210.0000	-1.3460E-9	-1.3460E-9	1.446657E-10	1.446657E-10	   20.0631	   21.9458	    7.1300	  -15.1915	
 -215.0000	-1.2910E-9	-1.2910E-9	1.697393E-10	1.697393E-10	   20.0631	   21.9618	    7.1287	  -15.1819	
 -220.0000	-1.2640E-9	-1.2640E-9	1.594978E-10	1.594978E-10	   20.0631	   21.9580	    7.1300	  -15.1825	
 -225.0000	-1.3530E-9	-1.3530E-9	1.604470E-10	1.604470E-10	   20.0631	   21.9536	    7.1300	  -15.1858	
 -230.0000	-1.4290E-9	-1.4290E-9	1.504876E-10	1.504876E-10	   20.0605	   21.9505	    7.1306	  -15.1870	
 -235.0000	-1.4790E-9	-1.4790E-9	1.713137E-10	1.713137E-10	   20.0605	   21.8936	    7.1259	  -15.2369	
 -240.0000	-1.4200E-9	-1.4200E-9	1.676996E-10	1.676996E-10	   20.0605	   21.9247	    7.1224	  -15.2198	
 -245.0000	-1.4920E-9	-1.4920E-9	1.609534E-10	1.609534E-10	   20.0631	   21.9147	    7.1281	  -15.2176	
 -250.0000	-1.5280E-9	-1.5280E-9	1.720579E-10	1.720579E-10	   20.0631	   21.9541	    7.1224	  -15.1983	
 -255.0000	-1.5320E-9	-1.5320E-9	1.480016E-10	1.480016E-10	   20.0631	   21.9737	    7.1199	  -15.1881	
 -260.0000	-1.5490E-9	-1.5490E-9	1.660377E-10	1.660377E-10	   20.0631	   21.9518	    7.1214	  -15.2015	
 -265.0000	-1.5260E-9	-1.5260E-9	1.784981E-10	1.784981E-10	   20.0605	   22.0118	    7.1167	  -15.1655	
 -270.0000	-1.5170E-9	-1.5170E-9	1.469754E-10	1.469754E-10	   20.0605	   21.9455	    7.1240	  -15.2018	
 -275.0000	-1.5210E-9	-1.5210E-9	1.571906E-10	1.571906E-10	   20.0579	   21.9620	    7.1249	  -15.1881	
 -280.0000	-1.6310E-9	-1.6310E-9	1.448714E-10	1.448714E-10	   20.0605	   21.9623	    7.1157	  -15.2034	
 -285.0000	-1.6520E-9	-1.6520E-9	1.153452E-10	1.153452E-10	   20.0605	   21.9623	    7.1157	  -15.2034	
 -290.0000	-1.6710E-9	-1.6710E-9	1.556258E-10	1.556258E-10	   20.0605	   21.9532	    7.1110	  -15.2182	
 -295.0000	-1.5910E-9	-1.5910E-9	1.555889E-10	1.555889E-10	   20.0605	   21.9489	    7.1018	  -15.2219	
 -300.0000	-1.6120E-9	-1.6120E-9	1.575392E-10	1.575392E-10	   20.0605	   21.9489	    7.1012	  -15.2369	
 -305.0000	-1.6390E-9	-1.6390E-9	1.322964E-10	1.322964E-10	   20.0605	   21.9517	    7.1012	  -15.2359	
 -310.0000	-1.6540E-9	-1.6540E-9	1.234325E-10	1.234325E-10	   20.0605	   21.9432	    7.1154	  -15.2180	
 -315.0000	-1.6870E-9	-1.6870E-9	1.398356E-10	1.398356E-10	   20.0605	   21.9491	    7.1139	  -15.2164	
 -320.0000	-1.7110E-9	-1.7110E-9	1.516986E-10	1.516986E-10	   20.0605	   21.9267	    7.1040	  -15.2495	
 -325.0000	-1.7420E-9	-1.7420E-9	1.576319E-10	1.576319E-10	   20.0605	   21.9446	    7.1053	  -15.2342	
 -330.0000	-1.7400E-9	-1.7400E-9	1.475669E-10	1.475669E-10	   20.0605	   21.9264	    7.0980	  -15.2599	
 -335.0000	-1.7610E-9	-1.7610E-9	1.518076E-10	1.518076E-10	   20.0605	   21.9421	    7.0927	  -15.2575	
 -340.0000	-1.8690E-9	-1.8690E-9	1.683059E-10	1.683059E-10	   20.0605	   21.9600	    7.0987	  -15.2341	
 -345.0000	-1.8700E-9	-1.8700E-9	1.621828E-10	1.621828E-10	   20.0605	   21.9295	    7.1015	  -15.2517	
 -350.0000	-1.8360E-9	-1.8360E-9	1.271946E-10	1.271946E-10	   20.0605	   21.9295	    7.1018	  -15.2517	
 -355.0000	-1.9400E-9	-1.9400E-9	1.250844E-10	1.250844E-10	   20.0605	   21.9295	    7.1018	  -15.2512	
 -360.0000	-1.8850E-9	-1.8850E-9	1.406170E-10	1.406170E-10	   20.0605	   21.9588	    7.1009	  -15.2286	
 -365.0000	-1.8990E-9	-1.8990E-9	1.460494E-10	1.460494E-10	   20.0579	   21.9588	    7.0895	  -15.2313	
 -370.0000	-1.9420E-9	-1.9420E-9	1.466409E-10	1.466409E-10	   20.0579	   21.9814	    7.0895	  -15.2340	
 -375.0000	-1.9680E-9	-1.9680E-9	1.450447E-10	1.450447E-10	   20.0605	   21.9325	    7.0873	  -15.2737	
 -380.0000	-2.0360E-9	-2.0360E-9	1.392533E-10	1.392533E-10	   20.0605	   21.9325	    7.0867	  -15.2737	
 -385.0000	-2.0790E-9	-2.0790E-9	1.328831E-10	1.328831E-10	   20.0605	   21.9245	    7.0867	  -15.2806	
 -390.0000	-2.0810E-9	-2.0810E-9	1.408392E-10	1.408392E-10	   20.0605	   21.9650	    7.0857	  -15.2525	
 -395.0000	-2.1130E-9	-2.1130E-9	1.295796E-10	1.295796E-10	   20.0605	   21.9650	    7.0857	  -15.2525	
 -400.0000	-2.1880E-9	-2.1880E-9	1.513220E-10	1.513220E-10	   20.0605	   21.9033	    7.0844	  -15.3000	
 -410.0000	-2.2110E-9	-2.2110E-9	1.645932E-10	1.645932E-10	   20.0579	   21.9033	    7.0844	  -15.3000	
 -420.0000	-2.3650E-9	-2.3650E-9	1.612107E-10	1.612107E-10	   20.0579	   21.9508	    7.0838	  -15.2662	
 -430.0000	-2.3030E-9	-2.3030E-9	1.556725E-10	1.556725E-10	   20.0579	   21.9508	    7.0838	  -15.2662	
 -440.0000	-2.3970E-9	-2.3970E-9	1.438029E-10	1.438029E-10	   20.0579	   21.9508	    7.0844	  -15.2662	
 -450.0000	-2.4080E-9	-2.4080E-9	1.610970E-10	1.610970E-10	   20.0579	   21.9467	    7.0844	  -15.2681	
 -460.0000	-2.4140E-9	-2.4140E-9	1.872777E-10	1.872777E-10	   20.0579	   21.9410	    7.0794	  -15.2809	
 -470.0000	-2.5770E-9	-2.5770E-9	1.275154E-10	1.275154E-10	   20.0579	   21.9410	    7.0794	  -15.2809	
 -480.0000	-2.5690E-9	-2.5690E-9	1.662200E-10	1.662200E-10	   20.0579	   21.9410	    7.0832	  -15.2744	
 -490.0000	-2.5830E-9	-2.5830E-9	1.461784E-10	1.461784E-10	   20.0579	   21.9234	    7.0822	  -15.2890	
 -500.0000	-2.6520E-9	-2.6520E-9	1.461812E-10	1.461812E-10	   20.0579	   21.9234	    7.0822	  -15.2890	
 -510.0000	-2.7180E-9	-2.7180E-9	1.690841E-10	1.690841E-10	   20.0579	   21.9570	    7.0750	  -15.2767	
 -520.0000	-2.8270E-9	-2.8270E-9	1.514005E-10	1.514005E-10	   20.0579	   21.9570	    7.0848	  -15.2600	
 -530.0000	-2.8580E-9	-2.8580E-9	1.555783E-10	1.555783E-10	   20.0579	   21.9570	    7.0794	  -15.2600	
 -540.0000	-2.8580E-9	-2.8580E-9	1.327700E-10	1.327700E-10	   20.0579	   21.9647	    7.0794	  -15.2635	
 -550.0000	-2.9270E-9	-2.9270E-9	1.366901E-10	1.366901E-10	   20.0605	   21.9336	    7.0806	  -15.2842	
 -560.0000	-2.9440E-9	-2.9440E-9	1.580821E-10	1.580821E-10	   20.0605	   21.9374	    7.0765	  -15.2884	
 -570.0000	-2.8650E-9	-2.8650E-9	1.237350E-10	1.237350E-10	   20.0579	   21.8904	    7.0784	  -15.3197	
 -580.0000	-3.0050E-9	-3.0050E-9	1.642652E-10	1.642652E-10	   20.0605	   21.8898	    7.0835	  -15.3115	
 -590.0000	-2.9660E-9	-2.9660E-9	1.507955E-10	1.507955E-10	   20.0605	   21.8898	    7.0784	  -15.3115	
 -600.0000	-3.0290E-9	-3.0290E-9	1.556535E-10	1.556535E-10	   20.0605	   21.9881	    7.0784	  -15.2479	
 -610.0000	-3.0600E-9	-3.0600E-9	1.444389E-10	1.444389E-10	   20.0605	   21.9881	    7.0854	  -15.2479	
 -620.0000	-3.0710E-9	-3.0710E-9	1.441304E-10	1.441304E-10	   20.0605	   21.9455	    7.0854	  -15.2673	
 -630.0000	-3.1360E-9	-3.1360E-9	1.635064E-10	1.635064E-10	   20.0579	   21.9169	    7.0784	  -15.3002	
 -640.0000	-3.1920E-9	-3.1920E-9	1.343008E-10	1.343008E-10	   20.0579	   21.9169	    7.0655	  -15.3002	
 -650.0000	-3.1940E-9	-3.1940E-9	1.350156E-10	1.350156E-10	   20.0579	   21.9105	    7.0655	  -15.3270	
 -660.0000	-3.3000E-9	-3.3000E-9	1.396717E-10	1.396717E-10	   20.0605	   21.9438	    7.0718	  -15.2917	
 -670.0000	-3.2770E-9	-3.2770E-9	1.284787E-10	1.284787E-10	   20.0579	   21.9438	    7.0705	  -15.2917	
 -680.0000	-3.3000E-9	-3.3000E-9	1.314365E-10	1.314365E-10	   20.0579	   21.9220	    7.0705	  -15.3100	
 -690.0000	-3.3660E-9	-3.3660E-9	1.141392E-10	1.141392E-10	   20.0579	   21.9131	    7.0746	  -15.3095	
 -700.0000	-3.4360E-9	-3.4360E-9	1.598755E-10	1.598755E-10	   20.0605	   21.9131	    7.0667	  -15.3095	
 -710.0000	-3.5000E-9	-3.5000E-9	1.258810E-10	1.258810E-10	   20.0605	   21.9459	    7.0667	  -15.2988	
 -720.0000	-3.5230E-9	-3.5230E-9	1.526356E-10	1.526356E-10	   20.0605	   21.9459	    7.0705	  -15.2988	
 -730.0000	-3.6000E-9	-3.6000E-9	1.537278E-10	1.537278E-10	   20.0605	   21.9220	    7.0705	  -15.3099	
 -740.0000	-3.6890E-9	-3.6890E-9	1.425385E-10	1.425385E-10	   20.0605	   21.9494	    7.0633	  -15.3022	
 -750.0000	-3.6380E-9	-3.6380E-9	1.164042E-10	1.164042E-10	   20.0605	   21.9494	    7.0743	  -15.3022	
 -760.0000	-3.7620E-9	-3.7620E-9	1.375318E-10	1.375318E-10	   20.0605	   21.9494	    7.0743	  -15.2834	
 -770.0000	-3.6570E-9	-3.6570E-9	1.262517E-10	1.262517E-10	   20.0605	   21.9270	    7.0705	  -15.3063	
 -780.0000	-3.7100E-9	-3.7100E-9	1.249112E-10	1.249112E-10	   20.0579	   21.9602	    7.0746	  -15.2748	
 -790.0000	-3.7270E-9	-3.7270E-9	1.082171E-10	1.082171E-10	   20.0605	   21.9429	    7.0626	  -15.3081	
 -800.0000	-3.8710E-9	-3.8710E-9	1.451935E-10	1.451935E-10	   20.0579	   21.9429	    7.0674	  -15.3081	
 -810.0000	-3.9350E-9	-3.9350E-9	1.191560E-10	1.191560E-10	   20.0579	   21.9339	    7.0674	  -15.3066	
 -820.0000	-3.9010E-9	-3.9010E-9	1.370801E-10	1.370801E-10	   20.0579	   21.9547	    7.0677	  -15.2908	
 -830.0000	-4.0150E-9	-4.0150E-9	1.215939E-10	1.215939E-10	   20.0579	   21.9226	    7.0582	  -15.3305	
 -840.0000	-4.0340E-9	-4.0340E-9	1.359469E-10	1.359469E-10	   20.0579	   21.9226	    7.0718	  -15.3305	
 -850.0000	-4.1860E-9	-4.1860E-9	1.286903E-10	1.286903E-10	   20.0579	   21.9503	    7.0718	  -15.2870	
 -860.0000	-4.1510E-9	-4.1510E-9	1.181175E-10	1.181175E-10	   20.0605	   21.9503	    7.0598	  -15.2870	
 -870.0000	-4.2050E-9	-4.2050E-9	1.313326E-10	1.313326E-10	   20.0605	   21.9477	    7.0598	  -15.3093	
 -880.0000	-4.2560E-9	-4.2560E-9	1.082211E-10	1.082211E-10	   20.0579	   21.9440	    7.0712	  -15.2927	
 -890.0000	-4.3100E-9	-4.3100E-9	1.184302E-10	1.184302E-10	   20.0579	   21.9440	    7.0712	  -15.2927	
 -900.0000	-4.4670E-9	-4.4670E-9	1.205410E-10	1.205410E-10	   20.0605	   21.9266	    7.0629	  -15.3195	
 -910.0000	-4.3910E-9	-4.3910E-9	1.263404E-10	1.263404E-10	   20.0579	   21.9266	    7.0617	  -15.3195	
 -920.0000	-4.5250E-9	-4.5250E-9	1.098016E-10	1.098016E-10	   20.0579	   21.9266	    7.0617	  -15.3217	
 -930.0000	-4.5420E-9	-4.5420E-9	1.126191E-10	1.126191E-10	   20.0605	   21.9320	    7.0569	  -15.3258	
 -940.0000	-4.5930E-9	-4.5930E-9	1.161145E-10	1.161145E-10	   20.0579	   21.9497	    7.0579	  -15.3111	
 -950.0000	-4.6320E-9	-4.6320E-9	1.229476E-10	1.229476E-10	   20.0579	   21.9497	    7.0534	  -15.3111	
 -960.0000	-4.7100E-9	-4.7100E-9	1.192799E-10	1.192799E-10	   20.0579	   21.9323	    7.0534	  -15.3315	
 -970.0000	-4.7280E-9	-4.7280E-9	1.022796E-10	1.022796E-10	   20.0579	   21.9323	    7.0645	  -15.3315	
 -980.0000	-4.9050E-9	-4.9050E-9	1.101775E-10	1.101775E-10	   20.0579	   21.9307	    7.0645	  -15.3138	
 -990.0000	-4.8940E-9	-4.8940E-9	1.036890E-10	1.036890E-10	   20.0553	   21.9307	    7.0633	  -15.3138	
-1000.0000	-5.0250E-9	-5.0250E-9	1.045399E-10	1.045399E-10	   20.0553	   21.9434	    7.0633	  -15.3066	
