GCD Test
Bias: 5000.000000
IV_34252_009_PSS_HM_XX_DIODEQUARTER
Date/Time: 9/13/2021 4:14:16 PM
Sensor Name: DIODEQUARTER
Type: P
Annealing Status: Not Irradiated and Not Annealed
Environment: 20C
Tester: Andrew Kent

Time Delay per Ramp Step (s): 0.500

CV Time Delay per Measurement (s) :0.500

AC Voltage (V): 0.500

Current Number of measurements per voltage: 1.000

IV Time Delay per Measurement (s) :0.000


BiasVoltage	Total Current_Avg	Total Current_0	Bias Current_Avg	Bias Current_0	Temperature	Air_Temp	Humidity	Dewpoint	
   -5.0000	4.4400E-10	4.4400E-10	-3.535449E-11	-3.535449E-11	   19.9987	   21.8669	    7.0041	  -15.4896	
  -10.0000	3.9000E-10	3.9000E-10	-3.647959E-11	-3.647959E-11	   19.9987	   21.8888	    7.0041	  -15.4480	
  -15.0000	2.8000E-10	2.8000E-10	-3.753358E-11	-3.753358E-11	   19.9987	   21.8740	    6.9959	  -15.4730	
  -20.0000	2.1400E-10	2.1400E-10	-3.880678E-11	-3.880678E-11	   20.0013	   21.8689	    6.9886	  -15.4892	
  -25.0000	2.3700E-10	2.3700E-10	-3.989664E-11	-3.989664E-11	   20.0039	   21.8614	    6.9817	  -15.5067	
  -30.0000	1.3500E-10	1.3500E-10	-4.192640E-11	-4.192640E-11	   20.0064	   21.8726	    6.9911	  -15.4821	
  -35.0000	2.1600E-10	2.1600E-10	-4.378852E-11	-4.378852E-11	   20.0090	   21.8580	    6.9905	  -15.4939	
  -40.0000	1.4400E-10	1.4400E-10	-4.680304E-11	-4.680304E-11	   20.0064	   21.8580	    6.9845	  -15.4939	
  -45.0000	1.2200E-10	1.2200E-10	-5.027735E-11	-5.027735E-11	   20.0064	   21.8393	    6.9896	  -15.5180	
  -50.0000	1.0000E-10	1.0000E-10	-5.487530E-11	-5.487530E-11	   20.0064	   21.8654	    6.9782	  -15.4902	
  -55.0000	2.0000E-12	2.0000E-12	-5.683723E-11	-5.683723E-11	   20.0039	   21.8697	    6.9915	  -15.5066	
  -60.0000	5.7000E-11	5.7000E-11	-5.800508E-11	-5.800508E-11	   20.0039	   21.8572	    6.9915	  -15.4929	
  -65.0000	-4.5000E-11	-4.5000E-11	-5.890451E-11	-5.890451E-11	   20.0064	   21.8396	    6.9924	  -15.5042	
  -70.0000	-5.4000E-11	-5.4000E-11	-6.154581E-11	-6.154581E-11	   20.0039	   21.8479	    6.9794	  -15.5204	
  -75.0000	-7.4000E-11	-7.4000E-11	-6.227899E-11	-6.227899E-11	   20.0013	   21.8535	    6.9700	  -15.5326	
  -80.0000	-6.4000E-11	-6.4000E-11	-6.248761E-11	-6.248761E-11	   20.0013	   21.8416	    6.9801	  -15.5239	
  -85.0000	-1.4000E-10	-1.4000E-10	-6.281799E-11	-6.281799E-11	   20.0013	   21.8401	    6.9769	  -15.5305	
  -90.0000	-1.9100E-10	-1.9100E-10	-6.312355E-11	-6.312355E-11	   20.0013	   21.8708	    6.9832	  -15.4970	
  -95.0000	-4.7000E-11	-4.7000E-11	-6.295347E-11	-6.295347E-11	   20.0039	   21.8636	    6.9785	  -15.5105	
 -100.0000	-1.3100E-10	-1.3100E-10	-6.361186E-11	-6.361186E-11	   20.0039	   21.8544	    6.9753	  -15.5227	
 -105.0000	-2.0700E-10	-2.0700E-10	-6.386588E-11	-6.386588E-11	   20.0039	   21.8514	    6.9756	  -15.5244	
 -110.0000	-1.6100E-10	-1.6100E-10	-6.433382E-11	-6.433382E-11	   20.0039	   21.8553	    6.9775	  -15.5182	
 -115.0000	-1.3000E-10	-1.3000E-10	-6.387221E-11	-6.387221E-11	   20.0039	   21.8595	    6.9807	  -15.5097	
 -120.0000	-1.7500E-10	-1.7500E-10	-6.424298E-11	-6.424298E-11	   20.0039	   21.8654	    6.9782	  -15.5097	
 -125.0000	-2.4100E-10	-2.4100E-10	-6.394251E-11	-6.394251E-11	   20.0013	   21.8436	    6.9753	  -15.5306	
 -130.0000	-1.6700E-10	-1.6700E-10	-6.422546E-11	-6.422546E-11	   20.0013	   21.8562	    6.9775	  -15.5176	
 -135.0000	-2.6000E-10	-2.6000E-10	-6.442184E-11	-6.442184E-11	   20.0013	   21.8562	    6.9756	  -15.5176	
 -140.0000	-2.5100E-10	-2.5100E-10	-6.481135E-11	-6.481135E-11	   19.9987	   21.8618	    6.9756	  -15.5168	
 -145.0000	-2.8800E-10	-2.8800E-10	-6.447499E-11	-6.447499E-11	   20.0013	   21.8511	    6.9734	  -15.5218	
 -150.0000	-2.7300E-10	-2.7300E-10	-6.474878E-11	-6.474878E-11	   19.9987	   21.8511	    6.9633	  -15.5284	
 -155.0000	-2.1400E-10	-2.1400E-10	-6.478344E-11	-6.478344E-11	   19.9987	   21.8536	    6.9633	  -15.5440	
 -160.0000	-3.2600E-10	-3.2600E-10	-6.505049E-11	-6.505049E-11	   20.0013	   21.8442	    6.9674	  -15.5438	
 -165.0000	-2.4400E-10	-2.4400E-10	-6.485266E-11	-6.485266E-11	   20.0039	   21.8557	    6.9681	  -15.5343	
 -170.0000	-3.5300E-10	-3.5300E-10	-6.517451E-11	-6.517451E-11	   20.0013	   21.8572	    6.9605	  -15.5463	
 -175.0000	-2.3700E-10	-2.3700E-10	-6.545258E-11	-6.545258E-11	   20.0013	   21.8619	    6.9589	  -15.5456	
 -180.0000	-2.7300E-10	-2.7300E-10	-6.565486E-11	-6.565486E-11	   20.0013	   21.8754	    6.9630	  -15.5286	
 -185.0000	-3.8500E-10	-3.8500E-10	-6.513255E-11	-6.513255E-11	   20.0039	   21.8556	    6.9700	  -15.5311	
 -190.0000	-3.9000E-10	-3.9000E-10	-6.527599E-11	-6.527599E-11	   20.0013	   21.8653	    6.9627	  -15.5366	
 -195.0000	-3.4800E-10	-3.4800E-10	-6.553916E-11	-6.553916E-11	   20.0013	   21.8604	    6.9687	  -15.5298	
 -200.0000	-4.0300E-10	-4.0300E-10	-6.582192E-11	-6.582192E-11	   20.0013	   21.8481	    6.9687	  -15.5388	
 -205.0000	-3.1200E-10	-3.1200E-10	-6.569643E-11	-6.569643E-11	   20.0013	   21.8592	    6.9674	  -15.5329	
 -210.0000	-4.1900E-10	-4.1900E-10	-6.553284E-11	-6.553284E-11	   19.9987	   21.8533	    6.9605	  -15.5491	
 -215.0000	-4.4600E-10	-4.4600E-10	-6.658932E-11	-6.658932E-11	   20.0013	   21.8433	    6.9602	  -15.5570	
 -220.0000	-3.4600E-10	-3.4600E-10	-6.623691E-11	-6.623691E-11	   20.0013	   21.8503	    6.9620	  -15.5487	
 -225.0000	-4.6300E-10	-4.6300E-10	-6.642412E-11	-6.642412E-11	   20.0013	   21.8508	    6.9560	  -15.5587	
 -230.0000	-4.6500E-10	-4.6500E-10	-6.667773E-11	-6.667773E-11	   20.0013	   21.8530	    6.9554	  -15.5581	
 -235.0000	-4.5100E-10	-4.5100E-10	-6.685696E-11	-6.685696E-11	   20.0039	   21.8413	    6.9646	  -15.5509	
 -240.0000	-4.8500E-10	-4.8500E-10	-6.677121E-11	-6.677121E-11	   20.0013	   21.8518	    6.9554	  -15.5590	
 -245.0000	-4.6800E-10	-4.6800E-10	-6.716072E-11	-6.716072E-11	   20.0039	   21.8514	    6.9595	  -15.5522	
 -250.0000	-5.0000E-10	-5.0000E-10	-6.715806E-11	-6.715806E-11	   20.0013	   21.8539	    6.9567	  -15.5553	
 -255.0000	-5.2400E-10	-5.2400E-10	-6.730046E-11	-6.730046E-11	   20.0013	   21.8539	    6.9570	  -15.5553	
 -260.0000	-4.1800E-10	-4.1800E-10	-6.768407E-11	-6.768407E-11	   20.0013	   21.8383	    6.9570	  -15.5662	
 -265.0000	-4.1800E-10	-4.1800E-10	-6.790406E-11	-6.790406E-11	   20.0013	   21.8419	    6.9658	  -15.5482	
 -270.0000	-4.2300E-10	-4.2300E-10	-6.796517E-11	-6.796517E-11	   20.0013	   21.8543	    6.9608	  -15.5479	
 -275.0000	-5.4800E-10	-5.4800E-10	-6.777694E-11	-6.777694E-11	   20.0013	   21.8423	    6.9598	  -15.5583	
 -280.0000	-5.5300E-10	-5.5300E-10	-6.826279E-11	-6.826279E-11	   20.0013	   21.8402	    6.9510	  -15.5752	
 -285.0000	-5.7400E-10	-5.7400E-10	-6.816482E-11	-6.816482E-11	   20.0013	   21.8402	    6.9510	  -15.5752	
 -290.0000	-4.5200E-10	-4.5200E-10	-6.886599E-11	-6.886599E-11	   20.0013	   21.8578	    6.9598	  -15.5470	
 -295.0000	-5.5000E-10	-5.5000E-10	-6.887615E-11	-6.887615E-11	   20.0013	   21.8578	    6.9494	  -15.5470	
 -300.0000	-5.2900E-10	-5.2900E-10	-6.928603E-11	-6.928603E-11	   20.0013	   21.8447	    6.9494	  -15.5746	
 -305.0000	-5.2200E-10	-5.2200E-10	-6.902323E-11	-6.902323E-11	   19.9987	   21.8495	    6.9522	  -15.5662	
 -310.0000	-5.1000E-10	-5.1000E-10	-6.911755E-11	-6.911755E-11	   19.9987	   21.8582	    6.9579	  -15.5500	
 -315.0000	-5.6800E-10	-5.6800E-10	-6.899921E-11	-6.899921E-11	   19.9987	   21.8382	    6.9560	  -15.5827	
 -320.0000	-6.2900E-10	-6.2900E-10	-6.907866E-11	-6.907866E-11	   19.9987	   21.8382	    6.9462	  -15.5679	
 -325.0000	-5.1500E-10	-5.1500E-10	-6.913651E-11	-6.913651E-11	   19.9987	   21.8319	    6.9500	  -15.5895	
 -330.0000	-6.1100E-10	-6.1100E-10	-6.930376E-11	-6.930376E-11	   19.9987	   21.8466	    6.9500	  -15.5721	
 -335.0000	-6.3500E-10	-6.3500E-10	-6.927363E-11	-6.927363E-11	   19.9987	   21.8418	    6.9497	  -15.5762	
 -340.0000	-6.5700E-10	-6.5700E-10	-6.978963E-11	-6.978963E-11	   19.9987	   21.8461	    6.9472	  -15.5774	
 -345.0000	-6.5300E-10	-6.5300E-10	-6.946594E-11	-6.946594E-11	   20.0013	   21.8464	    6.9636	  -15.5488	
 -350.0000	-6.7100E-10	-6.7100E-10	-6.966312E-11	-6.966312E-11	   20.0013	   21.8508	    6.9519	  -15.5658	
 -355.0000	-6.8100E-10	-6.8100E-10	-6.991265E-11	-6.991265E-11	   20.0013	   21.8498	    6.9466	  -15.5758	
 -360.0000	-6.8600E-10	-6.8600E-10	-6.997460E-11	-6.997460E-11	   20.0064	   21.8404	    6.9535	  -15.5707	
 -365.0000	-6.9100E-10	-6.9100E-10	-7.000699E-11	-7.000699E-11	   20.0039	   21.8408	    6.9522	  -15.5725	
 -370.0000	-7.0500E-10	-7.0500E-10	-7.007035E-11	-7.007035E-11	   20.0039	   21.8301	    6.9538	  -15.5776	
 -375.0000	-6.6700E-10	-6.6700E-10	-7.042947E-11	-7.042947E-11	   20.0039	   21.8457	    6.9456	  -15.5804	
 -380.0000	-7.2000E-10	-7.2000E-10	-7.063379E-11	-7.063379E-11	   20.0039	   21.8418	    6.9469	  -15.5812	
 -385.0000	-6.6500E-10	-6.6500E-10	-7.050242E-11	-7.050242E-11	   20.0039	   21.8459	    6.9497	  -15.5732	
 -390.0000	-7.3000E-10	-7.3000E-10	-7.024533E-11	-7.024533E-11	   20.0013	   21.8373	    6.9491	  -15.5806	
 -395.0000	-7.4100E-10	-7.4100E-10	-7.039933E-11	-7.039933E-11	   20.0013	   21.8470	    6.9405	  -15.5882	
 -400.0000	-7.2900E-10	-7.2900E-10	-7.050015E-11	-7.050015E-11	   20.0013	   21.8473	    6.9500	  -15.5716	
 -410.0000	-8.0000E-10	-8.0000E-10	-7.098298E-11	-7.098298E-11	   20.0013	   21.8477	    6.9497	  -15.5719	
 -420.0000	-7.2400E-10	-7.2400E-10	-7.176279E-11	-7.176279E-11	   20.0013	   21.8443	    6.9453	  -15.5820	
 -430.0000	-8.6700E-10	-8.6700E-10	-7.171469E-11	-7.171469E-11	   20.0013	   21.8538	    6.9472	  -15.5718	
 -440.0000	-7.9400E-10	-7.9400E-10	-7.108057E-11	-7.108057E-11	   20.0039	   21.8538	    6.9431	  -15.5718	
 -450.0000	-9.2800E-10	-9.2800E-10	-7.181350E-11	-7.181350E-11	   20.0013	   21.8431	    6.9494	  -15.5867	
 -460.0000	-9.7000E-10	-9.7000E-10	-7.155130E-11	-7.155130E-11	   20.0013	   21.8419	    6.9421	  -15.5767	
 -470.0000	-9.8600E-10	-9.8600E-10	-7.219361E-11	-7.219361E-11	   20.0013	   21.8422	    6.9456	  -15.5890	
 -480.0000	-9.2800E-10	-9.2800E-10	-7.220383E-11	-7.220383E-11	   20.0013	   21.8500	    6.9456	  -15.5773	
 -490.0000	-9.4000E-10	-9.4000E-10	-7.224167E-11	-7.224167E-11	   19.9987	   21.8505	    6.9418	  -15.5835	
 -500.0000	-9.4200E-10	-9.4200E-10	-7.253424E-11	-7.253424E-11	   20.0013	   21.8379	    6.9450	  -15.5872	
 -510.0000	-1.0100E-9	-1.0100E-9	-7.246639E-11	-7.246639E-11	   20.0013	   21.8516	    6.9447	  -15.5777	
 -520.0000	-1.0370E-9	-1.0370E-9	-7.272955E-11	-7.272955E-11	   20.0013	   21.8450	    6.9437	  -15.5842	
 -530.0000	-1.0450E-9	-1.0450E-9	-7.276357E-11	-7.276357E-11	   20.0013	   21.8350	    6.9510	  -15.5790	
 -540.0000	-1.1440E-9	-1.1440E-9	-7.265642E-11	-7.265642E-11	   20.0013	   21.8464	    6.9459	  -15.5794	
 -550.0000	-1.0930E-9	-1.0930E-9	-7.294002E-11	-7.294002E-11	   20.0039	   21.8473	    6.9355	  -15.5968	
 -560.0000	-1.0870E-9	-1.0870E-9	-7.345602E-11	-7.345602E-11	   20.0013	   21.8460	    6.9428	  -15.5851	
 -570.0000	-1.1280E-9	-1.1280E-9	-7.356031E-11	-7.356031E-11	   20.0013	   21.8401	    6.9415	  -15.5916	
 -580.0000	-1.1540E-9	-1.1540E-9	-7.356114E-11	-7.356114E-11	   20.0013	   21.8449	    6.9472	  -15.5783	
 -590.0000	-1.1400E-9	-1.1400E-9	-7.362608E-11	-7.362608E-11	   20.0013	   21.8449	    6.9472	  -15.5783	
 -600.0000	-1.2490E-9	-1.2490E-9	-7.393922E-11	-7.393922E-11	   20.0013	   21.8413	    6.9513	  -15.5738	
 -610.0000	-1.1510E-9	-1.1510E-9	-7.392518E-11	-7.392518E-11	   20.0013	   21.8413	    6.9450	  -15.5738	
 -620.0000	-1.2030E-9	-1.2030E-9	-7.418062E-11	-7.418062E-11	   20.0013	   21.8413	    6.9453	  -15.5848	
 -630.0000	-1.3100E-9	-1.3100E-9	-7.416127E-11	-7.416127E-11	   20.0013	   21.8504	    6.9453	  -15.5776	
 -640.0000	-1.3220E-9	-1.3220E-9	-7.426905E-11	-7.426905E-11	   20.0013	   21.8424	    6.9462	  -15.5818	
 -650.0000	-1.2440E-9	-1.2440E-9	-7.481581E-11	-7.481581E-11	   19.9987	   21.8472	    6.9497	  -15.5723	
 -660.0000	-1.2960E-9	-1.2960E-9	-7.464222E-11	-7.464222E-11	   20.0013	   21.8378	    6.9383	  -15.5988	
 -670.0000	-1.2880E-9	-1.2880E-9	-7.489705E-11	-7.489705E-11	   19.9987	   21.8410	    6.9428	  -15.5888	
 -680.0000	-1.3620E-9	-1.3620E-9	-7.491619E-11	-7.491619E-11	   19.9987	   21.8468	    6.9497	  -15.5725	
 -690.0000	-1.3350E-9	-1.3350E-9	-7.553894E-11	-7.553894E-11	   19.9987	   21.8462	    6.9510	  -15.5708	
 -700.0000	-1.3480E-9	-1.3480E-9	-7.541633E-11	-7.541633E-11	   20.0013	   21.8495	    6.9526	  -15.5656	
 -710.0000	-1.3580E-9	-1.3580E-9	-7.597674E-11	-7.597674E-11	   20.0013	   21.8310	    6.9529	  -15.5786	
 -720.0000	-1.3860E-9	-1.3860E-9	-7.572250E-11	-7.572250E-11	   20.0013	   21.8346	    6.9532	  -15.5754	
 -730.0000	-1.3720E-9	-1.3720E-9	-7.627372E-11	-7.627372E-11	   20.0013	   21.8346	    6.9560	  -15.5754	
 -740.0000	-1.4750E-9	-1.4750E-9	-7.644526E-11	-7.644526E-11	   20.0013	   21.8225	    6.9560	  -15.5794	
 -750.0000	-1.4590E-9	-1.4590E-9	-7.671439E-11	-7.671439E-11	   20.0013	   21.8262	    6.9538	  -15.5806	
 -760.0000	-1.4560E-9	-1.4560E-9	-7.691484E-11	-7.691484E-11	   20.0013	   21.8262	    6.9535	  -15.5811	
 -770.0000	-1.4540E-9	-1.4540E-9	-7.666735E-11	-7.666735E-11	   20.0013	   21.8323	    6.9611	  -15.5635	
 -780.0000	-1.4850E-9	-1.4850E-9	-7.766431E-11	-7.766431E-11	   19.9987	   21.8323	    6.9551	  -15.5635	
 -790.0000	-1.6050E-9	-1.6050E-9	-7.804176E-11	-7.804176E-11	   19.9987	   21.8311	    6.9551	  -15.5748	
 -800.0000	-1.5780E-9	-1.5780E-9	-7.862073E-11	-7.862073E-11	   19.9987	   21.8311	    6.9646	  -15.5748	
 -810.0000	-1.5770E-9	-1.5770E-9	-7.854453E-11	-7.854453E-11	   19.9987	   21.8321	    6.9646	  -15.5576	
 -820.0000	-1.6620E-9	-1.6620E-9	-7.889207E-11	-7.889207E-11	   19.9987	   21.8327	    6.9529	  -15.5774	
 -830.0000	-1.6290E-9	-1.6290E-9	-7.937894E-11	-7.937894E-11	   19.9987	   21.8390	    6.9576	  -15.5646	
 -840.0000	-1.6390E-9	-1.6390E-9	-7.951237E-11	-7.951237E-11	   20.0013	   21.8390	    6.9564	  -15.5646	
 -850.0000	-1.6930E-9	-1.6930E-9	-8.009046E-11	-8.009046E-11	   20.0013	   21.8390	    6.9564	  -15.5668	
 -860.0000	-1.6410E-9	-1.6410E-9	-8.077535E-11	-8.077535E-11	   19.9987	   21.8380	    6.9614	  -15.5588	
 -870.0000	-1.6780E-9	-1.6780E-9	-8.162139E-11	-8.162139E-11	   20.0013	   21.8436	    6.9646	  -15.5492	
 -880.0000	-1.7420E-9	-1.7420E-9	-8.178148E-11	-8.178148E-11	   19.9987	   21.8305	    6.9662	  -15.5561	
 -890.0000	-1.7910E-9	-1.7910E-9	-8.269592E-11	-8.269592E-11	   19.9987	   21.8305	    6.9703	  -15.5561	
 -900.0000	-1.7180E-9	-1.7180E-9	-8.317975E-11	-8.317975E-11	   19.9987	   21.8360	    6.9703	  -15.5450	
 -910.0000	-1.7550E-9	-1.7550E-9	-8.384368E-11	-8.384368E-11	   20.0013	   21.8266	    6.9690	  -15.5540	
 -920.0000	-1.7680E-9	-1.7680E-9	-8.435701E-11	-8.435701E-11	   19.9987	   21.8264	    6.9753	  -15.5432	
 -930.0000	-1.8770E-9	-1.8770E-9	-8.593193E-11	-8.593193E-11	   19.9987	   21.8417	    6.9690	  -15.5429	
 -940.0000	-1.8060E-9	-1.8060E-9	-8.712812E-11	-8.712812E-11	   19.9987	   21.8417	    6.9690	  -15.5429	
 -950.0000	-1.8720E-9	-1.8720E-9	-8.744122E-11	-8.744122E-11	   20.0013	   21.8333	    6.9677	  -15.5513	
 -960.0000	-1.8860E-9	-1.8860E-9	-8.877979E-11	-8.877979E-11	   20.0013	   21.8333	    6.9700	  -15.5513	
 -970.0000	-1.8930E-9	-1.8930E-9	-8.973825E-11	-8.973825E-11	   20.0013	   21.8233	    6.9700	  -15.5548	
 -980.0000	-1.9470E-9	-1.9470E-9	-9.129115E-11	-9.129115E-11	   20.0039	   21.8297	    6.9662	  -15.5566	
 -990.0000	-1.8890E-9	-1.8890E-9	-9.237507E-11	-9.237507E-11	   20.0013	   21.8297	    6.9734	  -15.5566	
-1000.0000	-1.9270E-9	-1.9270E-9	-9.374460E-11	-9.374460E-11	   20.0013	   21.8297	    6.9734	  -15.5441	
