GCD Test
Bias: 5000.000000
CV_N4789_20_UR_DIODEHALF_GR_Irradiated_Annealed_60C_30min
Date/Time: 3/4/2022 10:37:25 AM
Sensor Name: DIODEHALF
Type: P
Annealing Status: Irradiated and Annealed at 60C for 30 minutes
Environment: 0C
Tester: Andrew Kent

Time Delay per Ramp Step (s): 0.500

CV Time Delay per Measurement (s) :0.500

AC Voltage (V): 0.500

Current Number of measurements per voltage: 1.000

IV Time Delay per Measurement (s) :0.000


BiasVoltage	LCR_Cp_freq1000.0	LCR_Cp_freq10000.0	LCR_Rp_freq1000.0	LCR_Rp_freq10000.0	Temperature	Air_Temp	Humidity	Dewpoint	
  -10.0000	4.230E-11	9.455E-12	2.464E+6	1.076E+6	   -0.0000	   13.0169	   29.1651	   -4.5164	
  -20.0000	3.285E-11	9.563E-12	3.627E+6	1.400E+6	   -0.0026	   13.0032	   29.1828	   -4.5202	
  -30.0000	2.776E-11	9.318E-12	4.589E+6	1.686E+6	    0.0026	   12.9936	   29.1977	   -4.5218	
  -40.0000	2.432E-11	8.980E-12	5.384E+6	1.943E+6	    0.0051	   12.9945	   29.2037	   -4.5183	
  -50.0000	2.203E-11	8.638E-12	6.060E+6	2.180E+6	    0.0026	   12.9862	   29.1983	   -4.5279	
  -60.0000	2.028E-11	8.316E-12	6.677E+6	2.398E+6	    0.0051	   12.9862	   29.1996	   -4.5273	
  -70.0000	1.894E-11	7.997E-12	7.203E+6	2.610E+6	   -0.0000	   13.0106	   29.2052	   -4.5037	
  -80.0000	1.777E-11	7.702E-12	7.726E+6	2.809E+6	    0.0051	   13.0161	   29.2201	   -4.4921	
  -90.0000	1.677E-11	7.392E-12	8.226E+6	3.016E+6	   -0.0000	   13.0185	   29.2211	   -4.4897	
 -100.0000	1.586E-11	7.073E-12	8.706E+6	3.234E+6	   -0.0000	   13.0041	   29.2287	   -4.4987	
 -110.0000	1.492E-11	6.725E-12	9.282E+6	3.499E+6	    0.0051	   12.9839	   29.2239	   -4.5183	
 -120.0000	1.400E-11	6.367E-12	1.013E+7	3.854E+6	   -0.0051	   12.9918	   29.2163	   -4.5149	
 -130.0000	1.293E-11	5.981E-12	1.120E+7	4.398E+6	    0.0026	   12.9964	   29.2268	   -4.5062	
 -140.0000	1.177E-11	5.636E-12	1.277E+7	5.206E+6	   -0.0026	   12.9812	   29.2179	   -4.5234	
 -150.0000	1.062E-11	5.363E-12	1.481E+7	6.370E+6	   -0.0051	   12.9885	   29.2075	   -4.5218	
 -160.0000	9.515E-12	5.168E-12	1.736E+7	7.906E+6	   -0.0000	   13.0014	   29.1980	   -4.5149	
 -170.0000	8.525E-12	5.034E-12	2.037E+7	9.795E+6	   -0.0026	   12.9937	   29.1768	   -4.5312	
 -180.0000	7.717E-12	4.946E-12	2.371E+7	1.190E+7	   -0.0026	   12.9797	   29.1629	   -4.5496	
 -190.0000	7.087E-12	4.883E-12	2.724E+7	1.424E+7	   -0.0000	   12.9843	   29.1467	   -4.5529	
 -200.0000	6.615E-12	4.838E-12	3.096E+7	1.669E+7	   -0.0026	   12.9884	   29.1464	   -4.5495	
 -220.0000	5.999E-12	4.784E-12	3.808E+7	2.123E+7	   -0.0026	   12.9736	   29.1249	   -4.5721	
 -240.0000	5.643E-12	4.753E-12	4.444E+7	2.530E+7	   -0.0026	   12.9725	   29.0971	   -4.5857	
 -260.0000	5.415E-12	4.734E-12	4.990E+7	2.860E+7	   -0.0000	   12.9832	   29.0857	   -4.5817	
 -280.0000	5.262E-12	4.719E-12	5.434E+7	3.160E+7	    0.0026	   12.9884	   29.0522	   -4.5924	
 -300.0000	5.151E-12	4.709E-12	5.822E+7	3.410E+7	   -0.0000	   12.9824	   29.0430	   -4.6018	
 -320.0000	5.069E-12	4.701E-12	6.126E+7	3.611E+7	   -0.0000	   12.9699	   29.0440	   -4.6121	
 -340.0000	5.004E-12	4.695E-12	6.412E+7	3.782E+7	   -0.0026	   12.9624	   29.0338	   -4.6232	
 -360.0000	4.946E-12	4.690E-12	6.626E+7	3.929E+7	   -0.0000	   12.9651	   29.0278	   -4.6237	
 -380.0000	4.901E-12	4.686E-12	6.788E+7	4.054E+7	    0.0026	   12.9657	   29.0016	   -4.6351	
 -400.0000	4.867E-12	4.683E-12	6.919E+7	4.151E+7	    0.0051	   12.9654	   28.9896	   -4.6408	
 -440.0000	4.815E-12	4.675E-12	7.090E+7	4.306E+7	   -0.0000	   12.9584	   28.9769	   -4.6526	
 -480.0000	4.773E-12	4.669E-12	7.106E+7	4.401E+7	   -0.0000	   12.9648	   28.9541	   -4.6575	
 -520.0000	4.738E-12	4.664E-12	7.058E+7	4.448E+7	   -0.0000	   12.9459	   28.9428	   -4.6790	
 -560.0000	4.698E-12	4.660E-12	7.008E+7	4.450E+7	    0.0051	   12.9600	   28.9450	   -4.6659	
 -600.0000	4.669E-12	4.657E-12	6.820E+7	4.442E+7	    0.0051	   12.9578	   28.9288	   -4.6752	
 -640.0000	4.638E-12	4.652E-12	6.664E+7	4.405E+7	   -0.0000	   12.9685	   28.9118	   -4.6737	
 -680.0000	4.615E-12	4.649E-12	6.455E+7	4.349E+7	   -0.0000	   12.9643	   28.8978	   -4.6837	
 -720.0000	4.584E-12	4.645E-12	6.227E+7	4.274E+7	    0.0026	   12.9590	   28.8947	   -4.6898	
 -760.0000	4.569E-12	4.641E-12	6.000E+7	4.189E+7	   -0.0026	   12.9412	   28.8725	   -4.7153	
 -800.0000	4.535E-12	4.638E-12	5.745E+7	4.095E+7	   -0.0026	   12.9492	   28.8577	   -4.7152	
 -840.0000	4.508E-12	4.634E-12	5.512E+7	3.981E+7	   -0.0000	   12.9524	   28.8479	   -4.7169	
 -880.0000	4.489E-12	4.631E-12	5.250E+7	3.876E+7	   -0.0026	   12.9394	   28.8302	   -4.7362	
 -920.0000	4.455E-12	4.627E-12	4.960E+7	3.736E+7	   -0.0026	   12.9529	   28.8223	   -4.7282	
 -960.0000	4.426E-12	4.624E-12	4.659E+7	3.579E+7	   -0.0000	   12.9421	   28.8283	   -4.7348	
-1000.0000	4.390E-12	4.620E-12	4.359E+7	3.438E+7	    0.0026	   12.9422	   28.8172	   -4.7396	
