GCD Test
Bias: 5000.000000
CV_N4789_20_UR_DIODEHALF_GR_Irradiated_Annealed_60C_90min
Date/Time: 3/5/2022 5:11:39 PM
Sensor Name: DIODEHALF
Type: P
Annealing Status: Irradiated and Annealed at 60C for 90 minutes
Environment: 0C
Tester: Andrew Kent

Time Delay per Ramp Step (s): 0.500

CV Time Delay per Measurement (s) :0.500

AC Voltage (V): 0.500

Current Number of measurements per voltage: 1.000

IV Time Delay per Measurement (s) :0.000


BiasVoltage	LCR_Cp_freq1000.0	LCR_Cp_freq10000.0	LCR_Rp_freq1000.0	LCR_Rp_freq10000.0	Temperature	Air_Temp	Humidity	Dewpoint	
  -10.0000	3.903E-11	9.056E-12	2.674E+6	1.166E+6	   -0.0026	   13.6194	   28.7056	   -4.2059	
  -20.0000	3.070E-11	9.321E-12	4.002E+6	1.511E+6	   -0.0102	   13.6194	   28.7372	   -4.1913	
  -30.0000	2.631E-11	9.115E-12	5.030E+6	1.800E+6	   -0.0077	   13.6020	   28.7540	   -4.1986	
  -40.0000	2.337E-11	8.817E-12	5.834E+6	2.049E+6	   -0.0051	   13.6026	   28.7634	   -4.1937	
  -50.0000	2.142E-11	8.510E-12	6.505E+6	2.272E+6	   -0.0026	   13.6092	   28.7628	   -4.1883	
  -60.0000	1.987E-11	8.196E-12	7.094E+6	2.481E+6	   -0.0102	   13.6139	   28.7641	   -4.1837	
  -70.0000	1.862E-11	7.907E-12	7.633E+6	2.681E+6	   -0.0102	   13.6083	   28.8055	   -4.1694	
  -80.0000	1.760E-11	7.631E-12	8.125E+6	2.884E+6	   -0.0128	   13.5983	   28.8090	   -4.1764	
  -90.0000	1.665E-11	7.332E-12	8.630E+6	3.091E+6	   -0.0077	   13.6133	   28.8197	   -4.1585	
 -100.0000	1.576E-11	7.015E-12	9.140E+6	3.319E+6	   -0.0077	   13.5948	   28.8371	   -4.1665	
 -110.0000	1.485E-11	6.661E-12	9.768E+6	3.606E+6	   -0.0051	   13.5832	   28.8545	   -4.1685	
 -120.0000	1.391E-11	6.307E-12	1.075E+7	3.991E+6	   -0.0051	   13.5801	   28.8504	   -4.1730	
 -130.0000	1.283E-11	5.938E-12	1.204E+7	4.573E+6	   -0.0026	   13.5857	   28.8504	   -4.1683	
 -140.0000	1.169E-11	5.604E-12	1.383E+7	5.457E+6	    0.0026	   13.5846	   28.8801	   -4.1555	
 -150.0000	1.053E-11	5.349E-12	1.621E+7	6.684E+6	    0.0026	   13.5715	   28.8871	   -4.1636	
 -160.0000	9.423E-12	5.164E-12	1.910E+7	8.312E+6	   -0.0000	   13.5715	   28.9099	   -4.1532	
 -170.0000	8.436E-12	5.032E-12	2.256E+7	1.039E+7	    0.0051	   13.5727	   28.9133	   -4.1505	
 -180.0000	7.629E-12	4.945E-12	2.648E+7	1.273E+7	    0.0026	   13.5675	   28.9096	   -4.1567	
 -190.0000	7.005E-12	4.883E-12	3.063E+7	1.534E+7	   -0.0000	   13.5629	   28.9298	   -4.1515	
 -200.0000	6.536E-12	4.839E-12	3.502E+7	1.808E+7	   -0.0026	   13.5662	   28.9298	   -4.1486	
 -220.0000	5.942E-12	4.786E-12	4.347E+7	2.328E+7	    0.0077	   13.5644	   28.9320	   -4.1491	
 -240.0000	5.595E-12	4.756E-12	5.092E+7	2.781E+7	    0.0051	   13.5449	   28.9295	   -4.1672	
 -260.0000	5.378E-12	4.737E-12	5.743E+7	3.164E+7	    0.0026	   13.5449	   28.9548	   -4.1556	
 -280.0000	5.232E-12	4.724E-12	6.274E+7	3.491E+7	    0.0077	   13.5403	   28.9630	   -4.1557	
 -300.0000	5.129E-12	4.714E-12	6.755E+7	3.767E+7	    0.0077	   13.5482	   28.9665	   -4.1474	
 -320.0000	5.056E-12	4.707E-12	7.120E+7	3.985E+7	    0.0102	   13.5668	   28.9794	   -4.1253	
 -340.0000	4.992E-12	4.702E-12	7.426E+7	4.181E+7	    0.0051	   13.5520	   28.9839	   -4.1361	
 -360.0000	4.948E-12	4.697E-12	7.690E+7	4.352E+7	    0.0077	   13.5484	   28.9855	   -4.1385	
 -380.0000	4.912E-12	4.692E-12	7.904E+7	4.491E+7	    0.0077	   13.5377	   28.9722	   -4.1539	
 -400.0000	4.874E-12	4.689E-12	8.052E+7	4.604E+7	    0.0026	   13.5377	   28.9712	   -4.1543	
 -440.0000	4.818E-12	4.682E-12	8.275E+7	4.766E+7	    0.0051	   13.5339	   28.9725	   -4.1570	
 -480.0000	4.772E-12	4.677E-12	8.343E+7	4.871E+7	    0.0026	   13.5236	   28.9738	   -4.1653	
 -520.0000	4.745E-12	4.673E-12	8.305E+7	4.926E+7	    0.0026	   13.5342	   28.9677	   -4.1589	
 -560.0000	4.718E-12	4.668E-12	8.167E+7	4.947E+7	    0.0026	   13.5261	   28.9503	   -4.1739	
 -600.0000	4.689E-12	4.665E-12	8.007E+7	4.941E+7	   -0.0000	   13.5250	   28.9304	   -4.1839	
 -640.0000	4.668E-12	4.661E-12	7.813E+7	4.897E+7	   -0.0000	   13.5184	   28.9250	   -4.1921	
 -680.0000	4.648E-12	4.658E-12	7.578E+7	4.854E+7	    0.0026	   13.5207	   28.9187	   -4.1930	
 -720.0000	4.634E-12	4.655E-12	7.332E+7	4.791E+7	   -0.0026	   13.5226	   28.8896	   -4.2047	
 -760.0000	4.602E-12	4.652E-12	7.035E+7	4.696E+7	   -0.0051	   13.5101	   28.8893	   -4.2157	
 -800.0000	4.586E-12	4.649E-12	6.748E+7	4.601E+7	   -0.0026	   13.5101	   28.8615	   -4.2285	
 -840.0000	4.557E-12	4.646E-12	6.475E+7	4.492E+7	   -0.0051	   13.5111	   28.8318	   -4.2413	
 -880.0000	4.535E-12	4.643E-12	6.174E+7	4.375E+7	   -0.0000	   13.4979	   28.8166	   -4.2597	
 -920.0000	4.505E-12	4.639E-12	5.829E+7	4.225E+7	   -0.0051	   13.4948	   28.8036	   -4.2684	
 -960.0000	4.482E-12	4.636E-12	5.520E+7	4.068E+7	   -0.0051	   13.4857	   28.7910	   -4.2821	
-1000.0000	4.454E-12	4.632E-12	5.151E+7	3.874E+7	   -0.0026	   13.4894	   28.7691	   -4.2889	
