GCD Test
Bias: 5000.000000
CV_36696_010_PSS_HM_XX_DIODEHALFPSTOP_GRCONN
Date/Time: 8/17/2021 6:11:32 PM
Sensor Name: 36696_010_PSS_HM_XX_DIODEHALFPSTOP_GRCONN
Type: P
Annealing Status: Unirrad
Environment: -20C
Tester: Eric Spencer

Time Delay per Ramp Step (s): 0.500

CV Time Delay per Measurement (s) :0.500

AC Voltage (V): 0.500

Current Number of measurements per voltage: 1.000

IV Time Delay per Measurement (s) :0.000


BiasVoltage	LCR_Cp_freq1000.0	LCR_Rp_freq1000.0	Temperature	Air_Temp	Humidity	Dewpoint
   -5.0000	2.160E-11	1.373E+9	   20.0270	   21.3055	    7.6287	  -14.8476	
  -10.0000	1.667E-11	1.792E+9	   20.0528	   21.3058	    7.6309	  -14.8440	
  -15.0000	1.440E-11	2.002E+9	   20.0708	   21.3035	    7.6341	  -14.8406	
  -20.0000	1.303E-11	1.937E+9	   20.0811	   21.3035	    7.6252	  -14.8547	
  -25.0000	1.208E-11	2.060E+9	   20.0502	   21.3008	    7.6180	  -14.8682	
  -30.0000	1.141E-11	2.096E+9	   20.0270	   21.2945	    7.6233	  -14.8644	
  -35.0000	1.085E-11	2.116E+9	   20.0039	   21.3069	    7.6176	  -14.8642	
  -40.0000	1.041E-11	2.170E+9	   19.9730	   21.2980	    7.6107	  -14.8819	
  -45.0000	1.005E-11	2.117E+9	   19.9524	   21.3030	    7.6186	  -14.8656	
  -50.0000	9.740E-12	2.215E+9	   19.9344	   21.3025	    7.6113	  -14.8775	
  -55.0000	9.466E-12	2.020E+9	   19.9292	   21.2934	    7.6192	  -14.8717	
  -60.0000	9.235E-12	2.090E+9	   19.9344	   21.3031	    7.6097	  -14.8796	
  -65.0000	9.030E-12	2.138E+9	   19.9472	   21.3034	    7.6148	  -14.8713	
  -70.0000	8.850E-12	2.127E+9	   19.9730	   21.2943	    7.6170	  -14.8745	
  -75.0000	8.682E-12	2.134E+9	   20.0013	   21.2946	    7.6237	  -14.8638	
  -80.0000	8.536E-12	2.195E+9	   20.0347	   21.2936	    7.6268	  -14.8595	
  -85.0000	8.400E-12	2.032E+9	   20.0631	   21.2919	    7.6202	  -14.8713	
  -90.0000	8.277E-12	2.187E+9	   20.0862	   21.2981	    7.6249	  -14.8592	
  -95.0000	8.164E-12	2.077E+9	   20.0965	   21.2965	    7.6297	  -14.8528	
 -100.0000	8.061E-12	2.064E+9	   20.0939	   21.3029	    7.6256	  -14.8546	
 -105.0000	7.961E-12	2.225E+9	   20.0811	   21.3043	    7.6284	  -14.8490	
 -110.0000	7.878E-12	2.223E+9	   20.0579	   21.2968	    7.6192	  -14.8692	
 -115.0000	7.786E-12	2.488E+9	   20.0579	   21.2968	    7.6192	  -14.8692	
 -120.0000	7.706E-12	2.212E+9	   20.0245	   21.2937	    7.6325	  -14.8504	
 -125.0000	7.634E-12	2.300E+9	   19.9936	   21.3021	    7.6243	  -14.8572	
 -130.0000	7.561E-12	2.317E+9	   19.9704	   21.3064	    7.6252	  -14.8525	
 -135.0000	7.493E-12	2.223E+9	   19.9498	   21.3122	    7.6164	  -14.8623	
 -140.0000	7.431E-12	2.177E+9	   19.9395	   21.2928	    7.6233	  -14.8656	
 -145.0000	7.379E-12	2.384E+9	   19.9395	   21.2890	    7.6224	  -14.8699	
 -150.0000	7.320E-12	2.240E+9	   19.9498	   21.2970	    7.6256	  -14.8590	
 -155.0000	7.268E-12	2.340E+9	   19.9704	   21.2946	    7.6249	  -14.8617	
 -160.0000	7.219E-12	2.280E+9	   20.0142	   21.2946	    7.6271	  -14.8582	
 -165.0000	7.171E-12	2.479E+9	   20.0425	   21.2952	    7.6259	  -14.8598	
 -170.0000	7.123E-12	2.266E+9	   20.1017	   21.3000	    7.6436	  -14.8282	
 -175.0000	7.076E-12	2.345E+9	   20.1068	   21.2951	    7.6357	  -14.8444	
 -180.0000	7.035E-12	2.217E+9	   20.0914	   21.3061	    7.6287	  -14.8472	
 -185.0000	6.996E-12	2.424E+9	   20.0631	   21.3061	    7.6331	  -14.8402	
 -190.0000	6.959E-12	2.402E+9	   20.0219	   21.2954	    7.6335	  -14.8476	
 -195.0000	6.924E-12	2.500E+9	   19.9936	   21.2897	    7.6309	  -14.8559	
 -200.0000	6.884E-12	2.394E+9	   19.9653	   21.2985	    7.6357	  -14.8419	
 -205.0000	6.848E-12	2.225E+9	   19.9498	   21.2952	    7.6347	  -14.8458	
 -210.0000	6.811E-12	2.333E+9	   19.9421	   21.2977	    7.6309	  -14.8499	
 -215.0000	6.779E-12	2.242E+9	   19.9447	   21.2963	    7.6322	  -14.8490	
 -220.0000	6.753E-12	2.218E+9	   19.9627	   21.3043	    7.6202	  -14.8621	
 -225.0000	6.723E-12	2.247E+9	   19.9858	   21.2986	    7.6278	  -14.8543	
 -230.0000	6.690E-12	2.226E+9	   20.0167	   21.2981	    7.6379	  -14.8386	
 -235.0000	6.666E-12	2.297E+9	   20.0425	   21.2927	    7.6347	  -14.8476	
 -240.0000	6.633E-12	2.284E+9	   20.0682	   21.2961	    7.6303	  -14.8521	
 -245.0000	6.607E-12	2.531E+9	   20.0888	   21.2956	    7.6357	  -14.8439	
 -250.0000	6.582E-12	2.525E+9	   20.0914	   21.2931	    7.6256	  -14.8619	
 -255.0000	6.555E-12	2.315E+9	   20.0759	   21.2904	    7.6278	  -14.8604	
 -260.0000	6.532E-12	2.318E+9	   20.0528	   21.2823	    7.6341	  -14.8563	
 -265.0000	6.500E-12	2.337E+9	   20.0245	   21.2894	    7.6325	  -14.8536	
 -270.0000	6.473E-12	2.240E+9	   19.9961	   21.2888	    7.6363	  -14.8480	
 -275.0000	6.455E-12	2.506E+9	   19.9678	   21.2865	    7.6388	  -14.8457	
 -280.0000	6.431E-12	2.382E+9	   19.9472	   21.2865	    7.6553	  -14.8197	
 -285.0000	6.406E-12	2.362E+9	   19.9395	   21.2918	    7.6562	  -14.8143	
 -290.0000	6.390E-12	2.596E+9	   19.9395	   21.2834	    7.6588	  -14.8165	
 -295.0000	6.369E-12	2.410E+9	   19.9601	   21.2818	    7.6651	  -14.8077	
 -300.0000	6.352E-12	2.508E+9	   19.9833	   21.2917	    7.6556	  -14.8154	
 -305.0000	6.337E-12	2.181E+9	   20.0142	   21.2855	    7.6531	  -14.8239	
 -310.0000	6.330E-12	2.558E+9	   20.0528	   21.2856	    7.6480	  -14.8318	
 -315.0000	6.325E-12	2.472E+9	   20.0785	   21.2934	    7.6458	  -14.8296	
 -320.0000	6.324E-12	2.540E+9	   20.0785	   21.2934	    7.6458	  -14.8296	
 -325.0000	6.316E-12	2.251E+9	   20.0991	   21.2812	    7.6461	  -14.8382	
 -330.0000	6.315E-12	2.370E+9	   20.0914	   21.2941	    7.6322	  -14.8506	
 -335.0000	6.309E-12	2.432E+9	   20.0682	   21.2846	    7.6312	  -14.8591	
 -340.0000	6.310E-12	2.158E+9	   20.0682	   21.2846	    7.6312	  -14.8591	
 -345.0000	6.307E-12	2.401E+9	   20.0347	   21.2908	    7.6300	  -14.8566	
 -350.0000	6.306E-12	2.545E+9	   19.9755	   21.2815	    7.6145	  -14.8881	
 -355.0000	6.301E-12	2.318E+9	   19.9524	   21.2902	    7.6116	  -14.8861	
 -360.0000	6.304E-12	2.334E+9	   19.9421	   21.2902	    7.6101	  -14.8886	
 -365.0000	6.303E-12	2.304E+9	   19.9472	   21.2839	    7.6107	  -14.8923	
 -370.0000	6.300E-12	2.491E+9	   19.9653	   21.2814	    7.6211	  -14.8776	
 -375.0000	6.301E-12	2.597E+9	   19.9884	   21.2910	    7.6265	  -14.8619	
 -380.0000	6.300E-12	2.661E+9	   20.0142	   21.2901	    7.6176	  -14.8766	
 -385.0000	6.299E-12	2.182E+9	   20.0553	   21.2885	    7.6186	  -14.8763	
 -390.0000	6.301E-12	2.304E+9	   20.0837	   21.2876	    7.6224	  -14.8709	
 -395.0000	6.300E-12	2.281E+9	   20.0991	   21.2876	    7.6246	  -14.8674	
 -400.0000	6.300E-12	2.368E+9	   20.0939	   21.2936	    7.6275	  -14.8585	
 -410.0000	6.300E-12	2.319E+9	   20.0759	   21.2908	    7.6312	  -14.8545	
 -420.0000	6.297E-12	2.577E+9	   20.0425	   21.2808	    7.6379	  -14.8514	
 -430.0000	6.293E-12	2.388E+9	   20.0116	   21.2814	    7.6439	  -14.8415	
 -440.0000	6.297E-12	2.345E+9	   19.9781	   21.2865	    7.6414	  -14.8417	
 -450.0000	6.296E-12	2.508E+9	   19.9550	   21.2853	    7.6284	  -14.8632	
 -460.0000	6.295E-12	2.354E+9	   19.9421	   21.2864	    7.6363	  -14.8498	
 -470.0000	6.295E-12	2.513E+9	   19.9395	   21.2863	    7.6284	  -14.8624	
 -480.0000	6.286E-12	2.416E+9	   19.9498	   21.2864	    7.6243	  -14.8688	
 -490.0000	6.291E-12	2.485E+9	   19.9781	   21.2884	    7.6164	  -14.8799	
 -500.0000	6.292E-12	2.563E+9	   20.0142	   21.2884	    7.6183	  -14.8769	
 -510.0000	6.292E-12	2.238E+9	   20.0476	   21.2848	    7.6205	  -14.8760	
 -520.0000	6.293E-12	2.457E+9	   20.0785	   21.2848	    7.6243	  -14.8700	
 -530.0000	6.293E-12	2.274E+9	   20.0914	   21.2838	    7.6252	  -14.8693	
 -540.0000	6.294E-12	2.419E+9	   20.0914	   21.2838	    7.6252	  -14.8693	
 -550.0000	6.290E-12	2.314E+9	   20.0759	   21.2849	    7.6322	  -14.8574	
 -560.0000	6.290E-12	2.228E+9	   20.0759	   21.2849	    7.6322	  -14.8574	
 -570.0000	6.287E-12	2.404E+9	   20.0450	   21.2855	    7.6246	  -14.8690	
 -580.0000	6.286E-12	2.231E+9	   20.0167	   21.2896	    7.6265	  -14.8630	
 -590.0000	6.290E-12	2.465E+9	   19.9884	   21.2739	    7.6297	  -14.8696	
 -600.0000	6.290E-12	2.362E+9	   19.9472	   21.2948	    7.6135	  -14.8797	
