GCD Test
Bias: 5000.000000
CV_D0_CO142_LargeDiode_GRConnected_Irradiated_60min
Date/Time: 9/2/2021 1:05:41 PM
Sensor Name: CO142
Type: N
Annealing Status: Irradiated and Annealed at 60C for 60 minutes
Environment: -20C
Tester: Andrew Kent

Time Delay per Ramp Step (s): 0.500

CV Time Delay per Measurement (s) :0.500

AC Voltage (V): 0.500

Current Number of measurements per voltage: 4.000

IV Time Delay per Measurement (s) :0.000


BiasVoltage	LCR_Cp_freq1000.0	LCR_Cp_freq10000.0	LCR_Rp_freq1000.0	LCR_Rp_freq10000.0	Temperature	Air_Temp	Humidity	Dewpoint	
    1.0000	1.994E-11	1.827E-11	1.803E+6	1.762E+6	  -20.0186	    9.8904	    3.7230	  -31.1057	
    2.0000	2.455E-11	1.834E-11	1.892E+6	1.791E+6	  -20.0287	    9.8268	    3.7236	  -31.1483	
    3.0000	2.715E-11	1.837E-11	1.930E+6	1.812E+6	  -20.0262	    9.8449	    3.7185	  -31.1498	
    4.0000	2.888E-11	1.841E-11	1.966E+6	1.811E+6	  -20.0211	    9.8735	    3.7087	  -31.1574	
    5.0000	3.009E-11	1.842E-11	2.015E+6	1.837E+6	  -20.0338	    9.9128	    3.6939	  -31.1717	
    6.0000	3.119E-11	1.845E-11	2.046E+6	1.838E+6	  -20.0389	    9.9306	    3.6863	  -31.1807	
    7.0000	3.213E-11	1.846E-11	2.076E+6	1.854E+6	  -20.0415	    9.9556	    3.6904	  -31.1517	
    8.0000	3.307E-11	1.848E-11	2.094E+6	1.865E+6	  -20.0313	   10.0449	    3.7040	  -31.0511	
    9.0000	3.379E-11	1.849E-11	2.122E+6	1.881E+6	  -20.0160	    9.9556	    3.7062	  -31.1072	
   10.0000	3.418E-11	1.852E-11	2.171E+6	1.864E+6	  -20.0084	   10.0189	    3.7223	  -31.0179	
   20.0000	3.837E-11	1.863E-11	2.421E+6	1.937E+6	  -19.9906	   10.0599	    3.7394	  -30.9416	
   30.0000	4.002E-11	1.871E-11	2.656E+6	1.990E+6	  -19.9779	   10.0273	    3.7653	  -30.8922	
   40.0000	4.060E-11	1.875E-11	2.872E+6	2.066E+6	  -19.9804	   10.0273	    3.7704	  -30.8782	
   50.0000	4.084E-11	1.879E-11	3.067E+6	2.130E+6	  -19.9830	   10.1310	    3.7783	  -30.7840	
   60.0000	4.076E-11	1.883E-11	3.262E+6	2.180E+6	  -19.9855	   10.1241	    3.7748	  -30.7984	
   70.0000	4.059E-11	1.886E-11	3.444E+6	2.238E+6	  -19.9931	   10.1726	    3.7887	  -30.7262	
   80.0000	4.034E-11	1.889E-11	3.619E+6	2.279E+6	  -19.9855	   10.2008	    3.7944	  -30.6908	
   90.0000	3.987E-11	1.889E-11	3.804E+6	2.365E+6	  -19.9880	   10.1984	    3.8121	  -30.6438	
  100.0000	3.949E-11	1.890E-11	3.973E+6	2.416E+6	  -19.9957	   10.1436	    3.8178	  -30.6665	
  120.0000	3.832E-11	1.894E-11	4.356E+6	2.513E+6	  -19.9931	   10.1482	    3.8261	  -30.6408	
  140.0000	3.772E-11	1.892E-11	4.642E+6	2.658E+6	  -20.0211	   10.2668	    3.8276	  -30.5535	
  160.0000	3.676E-11	1.893E-11	4.959E+6	2.747E+6	  -20.0237	   10.2668	    3.8378	  -30.5259	
  180.0000	3.620E-11	1.891E-11	5.223E+6	2.866E+6	  -20.0262	   10.3006	    3.8466	  -30.4782	
  200.0000	3.567E-11	1.892E-11	5.476E+6	2.942E+6	  -20.0313	   10.3006	    3.8469	  -30.4773	
  220.0000	3.502E-11	1.891E-11	5.749E+6	3.039E+6	  -20.0313	   10.3379	    3.8738	  -30.3783	
  240.0000	3.445E-11	1.889E-11	6.002E+6	3.161E+6	  -20.0364	   10.2895	    3.8922	  -30.3627	
  260.0000	3.380E-11	1.888E-11	6.276E+6	3.246E+6	  -20.0338	   10.2711	    3.9039	  -30.3441	
  280.0000	3.343E-11	1.887E-11	6.485E+6	3.350E+6	  -20.0262	   10.2757	    3.9102	  -30.3239	
  300.0000	3.282E-11	1.883E-11	6.760E+6	3.512E+6	  -19.9855	   10.2901	    3.9137	  -30.3045	
  320.0000	3.219E-11	1.882E-11	7.046E+6	3.609E+6	  -19.9931	   10.2596	    3.9099	  -30.3360	
  340.0000	3.176E-11	1.879E-11	7.278E+6	3.745E+6	  -19.9753	   10.2900	    3.9121	  -30.3088	
  360.0000	3.123E-11	1.877E-11	7.549E+6	3.865E+6	  -19.9601	   10.2297	    3.9105	  -30.3553	
  380.0000	3.078E-11	1.873E-11	7.805E+6	4.044E+6	  -19.9702	   10.2377	    3.8928	  -30.3973	
  400.0000	3.034E-11	1.870E-11	8.062E+6	4.213E+6	  -19.9652	   10.2462	    3.8947	  -30.3862	
  420.0000	2.970E-11	1.867E-11	8.424E+6	4.403E+6	  -19.9753	   10.2568	    3.8808	  -30.4163	
  440.0000	2.927E-11	1.863E-11	8.701E+6	4.603E+6	  -19.9957	   10.2776	    3.8880	  -30.3821	
  460.0000	2.884E-11	1.861E-11	8.989E+6	4.794E+6	  -20.0008	   10.3179	    3.8843	  -30.3641	
  480.0000	2.842E-11	1.858E-11	9.291E+6	5.008E+6	  -20.0237	   10.2885	    3.8928	  -30.3616	
  500.0000	2.795E-11	1.856E-11	9.638E+6	5.195E+6	  -20.0313	   10.2852	    3.8937	  -30.3614	
  520.0000	2.745E-11	1.852E-11	1.002E+7	5.477E+6	  -20.0465	   10.2961	    3.9130	  -30.3020	
  540.0000	2.710E-11	1.850E-11	1.033E+7	5.706E+6	  -20.0440	   10.2975	    3.9307	  -30.2536	
  560.0000	2.669E-11	1.848E-11	1.068E+7	5.947E+6	  -20.0415	   10.3093	    3.9478	  -30.1998	
  580.0000	2.634E-11	1.846E-11	1.102E+7	6.244E+6	  -20.0008	   10.2813	    3.9624	  -30.1809	
  600.0000	2.588E-11	1.844E-11	1.147E+7	6.608E+6	  -19.9855	   10.2047	    3.9643	  -30.2296	
  620.0000	2.552E-11	1.842E-11	1.185E+7	6.968E+6	  -19.9804	   10.2084	    3.9700	  -30.2120	
  640.0000	2.497E-11	1.840E-11	1.245E+7	7.417E+6	  -19.9499	   10.3260	    3.9576	  -30.1621	
  660.0000	2.460E-11	1.838E-11	1.290E+7	7.848E+6	  -19.9626	   10.3052	    3.9497	  -30.1977	
  680.0000	2.413E-11	1.837E-11	1.351E+7	8.285E+6	  -19.9499	   10.3895	    3.9519	  -30.1327	
  700.0000	2.366E-11	1.835E-11	1.417E+7	8.864E+6	  -19.9473	   10.3931	    3.9428	  -30.1545	
  720.0000	2.324E-11	1.834E-11	1.483E+7	9.422E+6	  -20.0008	   10.3766	    3.9244	  -30.2151	
  740.0000	2.282E-11	1.833E-11	1.553E+7	1.015E+7	  -20.0135	   10.3659	    3.9238	  -30.2243	
  760.0000	2.237E-11	1.828E-11	1.609E+7	1.086E+7	  -20.0186	   10.3254	    3.9314	  -30.2324	
  780.0000	2.189E-11	1.828E-11	1.714E+7	1.158E+7	  -20.0338	   10.4108	    3.9371	  -30.1573	
  800.0000	2.152E-11	1.825E-11	1.799E+7	1.256E+7	  -20.0262	   10.3640	    3.9462	  -30.1657	
  820.0000	2.115E-11	1.824E-11	1.907E+7	1.342E+7	  -20.0211	   10.3762	    3.9507	  -30.1454	
  840.0000	2.080E-11	1.823E-11	2.024E+7	1.452E+7	  -20.0160	   10.3675	    3.9418	  -30.1751	
  860.0000	2.053E-11	1.822E-11	2.119E+7	1.553E+7	  -20.0135	   10.3591	    3.9358	  -30.1969	
  880.0000	2.020E-11	1.821E-11	2.280E+7	1.686E+7	  -20.0135	   10.2787	    3.9393	  -30.2441	
  900.0000	1.995E-11	1.820E-11	2.407E+7	1.810E+7	  -20.0135	   10.2343	    3.9443	  -30.2617	
  920.0000	1.971E-11	1.819E-11	2.551E+7	1.971E+7	  -19.9957	   10.2851	    3.9421	  -30.2320	
  940.0000	1.952E-11	1.819E-11	2.689E+7	2.102E+7	  -19.9880	   10.2426	    3.9418	  -30.2626	
  960.0000	1.932E-11	1.818E-11	2.861E+7	2.257E+7	  -19.9830	   10.2716	    3.9459	  -30.2313	
  980.0000	1.918E-11	1.817E-11	3.010E+7	2.435E+7	  -19.9804	   10.2716	    3.9336	  -30.2642	
 1000.0000	1.904E-11	1.816E-11	3.140E+7	2.583E+7	  -19.9855	   10.2848	    3.9269	  -30.2726	
 1020.0000	1.894E-11	1.815E-11	3.260E+7	2.740E+7	  -19.9957	   10.3363	    3.9326	  -30.2214	
 1040.0000	1.883E-11	1.815E-11	3.413E+7	2.893E+7	  -19.9804	   10.3646	    3.9285	  -30.2125	
 1060.0000	1.876E-11	1.814E-11	3.518E+7	3.007E+7	  -19.9830	   10.3568	    3.9247	  -30.2281	
 1080.0000	1.868E-11	1.813E-11	3.651E+7	3.197E+7	  -19.9804	   10.2866	    3.9171	  -30.2976	
 1100.0000	1.863E-11	1.813E-11	3.738E+7	3.278E+7	  -19.9855	   10.3117	    3.9124	  -30.2927	
