GCD Test
Bias: 5000.000000
CV_36697_036_PSS_HM_XX_DIODE
Date/Time: 9/24/2021 1:57:29 PM
Sensor Name: 36697_036_DIODE
Type: P
Annealing Status: Not Irradiated and Not Annealed
Environment: 20C
Tester: Andrew Kent

Time Delay per Ramp Step (s): 0.500

CV Time Delay per Measurement (s) :0.500

AC Voltage (V): 0.500

Current Number of measurements per voltage: 1.000

IV Time Delay per Measurement (s) :0.000


BiasVoltage	LCR_Cp_freqNaN	LCR_Rp_freqNaN	Temperature	Air_Temp	Humidity	Dewpoint	
   -5.0000	1.023E-10	7.345E+8	   21.0464	   21.8767	    9.6739	  -11.5026	
  -10.0000	7.435E-11	9.291E+8	   21.0258	   21.8676	    9.6657	  -11.5201	
  -15.0000	6.164E-11	8.069E+8	   21.0104	   21.7306	    9.6673	  -11.6222	
  -20.0000	5.247E-11	8.310E+8	   20.9924	   21.8312	    9.6626	  -11.5519	
  -25.0000	4.447E-11	1.004E+9	   20.9769	   21.8700	    9.6559	  -11.5309	
  -30.0000	3.978E-11	1.196E+9	   20.9615	   21.7086	    9.6452	  -11.6675	
  -35.0000	3.694E-11	1.154E+9	   20.9435	   21.7861	    9.6338	  -11.6233	
  -40.0000	3.375E-11	1.129E+8	   20.9280	   21.8121	    9.6287	  -11.6100	
  -45.0000	2.895E-11	1.074E+9	   20.9126	   21.8400	    9.6208	  -11.5990	
  -50.0000	2.775E-11	1.082E+9	   20.8971	   21.7925	    9.6309	  -11.6221	
  -55.0000	2.671E-11	1.140E+9	   20.8842	   21.7889	    9.6410	  -11.6118	
  -60.0000	2.581E-11	1.183E+9	   20.8688	   21.8359	    9.6360	  -11.5825	
  -65.0000	2.501E-11	1.310E+9	   20.8508	   21.8359	    9.6227	  -11.5997	
  -70.0000	2.430E-11	1.388E+9	   20.8379	   21.7479	    9.6082	  -11.6854	
  -75.0000	2.367E-11	1.380E+9	   20.8225	   21.7729	    9.5819	  -11.7005	
  -80.0000	2.308E-11	1.420E+9	   20.8096	   21.8439	    9.5607	  -11.6740	
  -85.0000	2.256E-11	1.507E+9	   20.7967	   21.8264	    9.5633	  -11.6841	
  -90.0000	2.208E-11	1.625E+9	   20.7813	   21.8313	    9.5579	  -11.6874	
  -95.0000	2.163E-11	1.559E+9	   20.7684	   21.7622	    9.5670	  -11.7279	
 -100.0000	2.122E-11	1.650E+9	   20.7581	   21.7659	    9.5689	  -11.7226	
 -105.0000	2.085E-11	1.629E+9	   20.7426	   21.7797	    9.5601	  -11.7237	
 -110.0000	2.049E-11	1.704E+9	   20.7323	   21.7864	    9.5569	  -11.7227	
 -115.0000	2.014E-11	1.770E+9	   20.7169	   21.8612	    9.5449	  -11.6815	
 -120.0000	1.984E-11	1.819E+9	   20.7066	   21.7013	    9.5329	  -11.8186	
 -125.0000	1.954E-11	1.715E+9	   20.6937	   21.7811	    9.5174	  -11.7782	
 -130.0000	1.927E-11	1.648E+9	   20.6834	   21.7906	    9.5142	  -11.7752	
 -135.0000	1.901E-11	1.751E+9	   20.6706	   21.7815	    9.5066	  -11.7920	
 -140.0000	1.877E-11	1.941E+9	   20.6603	   21.7514	    9.5082	  -11.8128	
 -145.0000	1.854E-11	1.891E+9	   20.6474	   21.7514	    9.4968	  -11.8277	
 -150.0000	1.831E-11	1.965E+9	   20.6371	   21.7425	    9.5035	  -11.8257	
 -155.0000	1.811E-11	1.877E+9	   20.6268	   21.7736	    9.5073	  -11.7971	
 -160.0000	1.791E-11	1.900E+9	   20.6165	   21.7782	    9.5016	  -11.8011	
 -165.0000	1.771E-11	2.092E+9	   20.6062	   21.7155	    9.4918	  -11.8615	
 -170.0000	1.753E-11	1.948E+9	   20.5959	   21.7077	    9.4937	  -11.8650	
 -175.0000	1.735E-11	1.905E+9	   20.5856	   21.7806	    9.4810	  -11.8262	
 -180.0000	1.719E-11	1.901E+9	   20.5727	   21.7806	    9.4684	  -11.8428	
 -185.0000	1.703E-11	1.865E+9	   20.5599	   21.7775	    9.4485	  -11.8714	
 -190.0000	1.688E-11	1.955E+9	   20.5521	   21.7405	    9.4402	  -11.9102	
 -195.0000	1.673E-11	2.163E+9	   20.5418	   21.5673	    9.4254	  -12.0611	
 -200.0000	1.659E-11	2.056E+9	   20.5315	   21.7340	    9.4127	  -11.9513	
 -205.0000	1.645E-11	2.223E+9	   20.5212	   21.7211	    9.4067	  -11.9691	
 -210.0000	1.631E-11	1.945E+9	   20.5110	   21.7600	    9.3903	  -11.9613	
 -215.0000	1.619E-11	2.083E+9	   20.5007	   21.7514	    9.3861	  -11.9733	
 -220.0000	1.606E-11	2.126E+9	   20.4929	   21.7591	    9.3741	  -11.9833	
 -225.0000	1.594E-11	1.946E+9	   20.4852	   21.6966	    9.3694	  -12.0369	
 -230.0000	1.582E-11	2.257E+9	   20.4775	   21.7257	    9.3697	  -12.0145	
 -235.0000	1.571E-11	2.189E+9	   20.4646	   21.7526	    9.3545	  -12.0142	
 -240.0000	1.560E-11	1.930E+9	   20.4569	   21.7698	    9.3533	  -12.0029	
 -245.0000	1.549E-11	2.087E+9	   20.4466	   21.7566	    9.3438	  -12.0255	
 -250.0000	1.538E-11	2.150E+9	   20.4363	   21.7566	    9.3324	  -12.0406	
 -255.0000	1.527E-11	1.928E+9	   20.4234	   21.7149	    9.3099	  -12.1020	
 -260.0000	1.517E-11	2.040E+9	   20.4157	   21.7126	    9.3001	  -12.1168	
 -265.0000	1.507E-11	2.211E+9	   20.4054	   21.7305	    9.2966	  -12.1079	
 -270.0000	1.498E-11	2.129E+9	   20.4003	   21.7571	    9.2770	  -12.1139	
 -275.0000	1.487E-11	2.112E+9	   20.3925	   21.6926	    9.2625	  -12.1822	
 -280.0000	1.478E-11	2.260E+9	   20.3797	   21.7137	    9.2729	  -12.1523	
 -285.0000	1.469E-11	2.117E+9	   20.3719	   21.7137	    9.2827	  -12.1392	
 -290.0000	1.461E-11	2.245E+9	   20.3668	   21.7369	    9.2849	  -12.1187	
 -295.0000	1.453E-11	2.175E+9	   20.3591	   21.7194	    9.2887	  -12.1268	
 -300.0000	1.447E-11	2.303E+9	   20.3514	   21.7183	    9.2827	  -12.1357	
 -305.0000	1.442E-11	2.133E+9	   20.3411	   21.7183	    9.2761	  -12.1446	
 -310.0000	1.438E-11	2.182E+9	   20.3359	   21.6960	    9.2742	  -12.1640	
 -315.0000	1.436E-11	2.140E+9	   20.3359	   21.6960	    9.2742	  -12.1640	
 -320.0000	1.434E-11	2.185E+9	   20.3205	   21.6601	    9.2549	  -12.2170	
 -325.0000	1.432E-11	2.237E+9	   20.3127	   21.7042	    9.2577	  -12.1798	
 -330.0000	1.431E-11	2.240E+9	   20.3127	   21.7042	    9.2577	  -12.1798	
 -335.0000	1.430E-11	2.073E+9	   20.2973	   21.7117	    9.2400	  -12.1978	
 -340.0000	1.429E-11	2.063E+9	   20.2921	   21.7019	    9.2375	  -12.2086	
 -345.0000	1.428E-11	2.208E+9	   20.2870	   21.7146	    9.2233	  -12.2181	
 -350.0000	1.427E-11	2.147E+9	   20.2793	   21.6867	    9.2195	  -12.2443	
 -355.0000	1.427E-11	2.274E+9	   20.2716	   21.7165	    9.2233	  -12.2166	
 -360.0000	1.426E-11	2.102E+9	   20.2664	   21.6887	    9.2160	  -12.2474	
 -365.0000	1.425E-11	2.187E+9	   20.2613	   21.7475	    9.2059	  -12.2166	
 -370.0000	1.424E-11	2.051E+9	   20.2535	   21.6624	    9.2008	  -12.2878	
 -375.0000	1.424E-11	2.049E+9	   20.2484	   21.6167	    9.1882	  -12.3394	
 -380.0000	1.424E-11	2.112E+9	   20.2432	   21.6698	    9.1743	  -12.3179	
 -385.0000	1.423E-11	2.175E+9	   20.2381	   21.6698	    9.1708	  -12.3226	
 -390.0000	1.423E-11	2.197E+9	   20.2304	   21.6909	    9.1673	  -12.3114	
 -395.0000	1.423E-11	2.096E+9	   20.2252	   21.6909	    9.1556	  -12.3272	
 -400.0000	1.422E-11	2.295E+9	   20.2201	   21.6595	    9.1515	  -12.3565	
 -410.0000	1.421E-11	2.204E+9	   20.2175	   21.6680	    9.1575	  -12.3419	
 -420.0000	1.421E-11	2.183E+9	   20.2098	   21.7108	    9.1502	  -12.3194	
 -430.0000	1.420E-11	2.142E+9	   20.2072	   21.6739	    9.1509	  -12.3464	
 -440.0000	1.420E-11	2.161E+9	   20.1995	   21.7358	    9.1515	  -12.2988	
 -450.0000	1.419E-11	2.174E+9	   20.1969	   21.6553	    9.1546	  -12.3553	
 -460.0000	1.419E-11	2.149E+9	   20.1918	   21.6158	    9.1534	  -12.3869	
 -470.0000	1.419E-11	2.224E+9	   20.1866	   21.6399	    9.1496	  -12.3738	
 -480.0000	1.418E-11	2.147E+9	   20.1815	   21.6977	    9.1426	  -12.3396	
 -490.0000	1.418E-11	2.016E+9	   20.1789	   21.5865	    9.1414	  -12.4254	
 -500.0000	1.418E-11	2.145E+9	   20.1737	   21.6595	    9.1265	  -12.3903	
 -510.0000	1.418E-11	2.209E+9	   20.1686	   21.6453	    9.1319	  -12.3937	
 -520.0000	1.417E-11	2.013E+9	   20.1660	   21.6302	    9.1161	  -12.4266	
 -530.0000	1.417E-11	2.292E+9	   20.1609	   21.6658	    9.1230	  -12.3903	
 -540.0000	1.416E-11	2.020E+9	   20.1557	   21.6658	    9.1050	  -12.4147	
 -550.0000	1.417E-11	2.159E+9	   20.1506	   21.6696	    9.0980	  -12.4213	
 -560.0000	1.417E-11	2.254E+9	   20.1454	   21.6496	    9.0863	  -12.4523	
 -570.0000	1.417E-11	2.254E+9	   20.1429	   21.6007	    9.0705	  -12.5107	
 -580.0000	1.416E-11	2.000E+9	   20.1377	   21.6348	    9.0620	  -12.4966	
 -590.0000	1.415E-11	2.079E+9	   20.1377	   21.6619	    9.0566	  -12.4835	
 -600.0000	1.416E-11	2.170E+9	   20.1326	   21.6310	    9.0525	  -12.5124	
