GCD Test
Bias: 5000.000000
IV_34252_018_PSS_HM_XX_DIODEQUARTER
Date/Time: 4/27/2021 12:16:01 PM
Sensor Name: DIODEQUARTER
Type: P
Annealing Status: Unirradiated
Environment: RT
Tester: Andrew Kent

Time Delay per Ramp Step (s): 0.500

CV Time Delay per Measurement (s) :0.500

AC Voltage (V): 0.500

Current Number of measurements per voltage: 1.000

IV Time Delay per Measurement (s) :0.000


BiasVoltage	Bias Current_Avg	Bias Current_0	Temperature	Air_Temp	Humidity	Dewpoint	
   -5.0000	-5.771311E-10	-5.771311E-10	   22.7693	   23.1130	   18.5721	   -2.0631	
  -10.0000	-5.785277E-10	-5.785277E-10	   22.7693	   23.1130	   18.5721	   -2.0631	
  -15.0000	-5.802877E-10	-5.802877E-10	   22.7719	   23.1111	   18.5702	   -2.0660	
  -20.0000	-5.830102E-10	-5.830102E-10	   22.7719	   23.1111	   18.5702	   -2.0660	
  -25.0000	-5.850707E-10	-5.850707E-10	   22.7719	   23.1084	   18.5670	   -2.0705	
  -30.0000	-5.875654E-10	-5.875654E-10	   22.7719	   23.1084	   18.5670	   -2.0705	
  -35.0000	-5.899580E-10	-5.899580E-10	   22.7719	   23.1056	   18.5743	   -2.0675	
  -40.0000	-5.932380E-10	-5.932380E-10	   22.7719	   23.1056	   18.5743	   -2.0675	
  -45.0000	-5.984887E-10	-5.984887E-10	   22.7719	   23.1019	   18.5582	   -2.0823	
  -50.0000	-6.016512E-10	-6.016512E-10	   22.7719	   23.1019	   18.5582	   -2.0823	
  -55.0000	-6.049537E-10	-6.049537E-10	   22.7719	   23.1077	   18.5648	   -2.0727	
  -60.0000	-6.063498E-10	-6.063498E-10	   22.7719	   23.1077	   18.5648	   -2.0727	
  -65.0000	-6.078819E-10	-6.078819E-10	   22.7693	   23.1034	   18.5674	   -2.0744	
  -70.0000	-6.082312E-10	-6.082312E-10	   22.7693	   23.1034	   18.5674	   -2.0744	
  -75.0000	-6.092165E-10	-6.092165E-10	   22.7719	   23.1013	   18.5797	   -2.0671	
  -80.0000	-6.095446E-10	-6.095446E-10	   22.7719	   23.1013	   18.5797	   -2.0671	
  -85.0000	-6.101742E-10	-6.101742E-10	   22.7719	   23.0990	   18.5911	   -2.0607	
  -90.0000	-6.102093E-10	-6.102093E-10	   22.7693	   23.1067	   18.5835	   -2.0600	
  -95.0000	-6.105071E-10	-6.105071E-10	   22.7693	   23.1067	   18.5835	   -2.0600	
 -100.0000	-6.111350E-10	-6.111350E-10	   22.7693	   23.1015	   18.5857	   -2.0626	
 -105.0000	-6.115986E-10	-6.115986E-10	   22.7693	   23.0977	   18.5908	   -2.0620	
 -110.0000	-6.118550E-10	-6.118550E-10	   22.7693	   23.0977	   18.5908	   -2.0620	
 -115.0000	-6.120623E-10	-6.120623E-10	   22.7693	   23.1004	   18.5854	   -2.0637	
 -120.0000	-6.120585E-10	-6.120585E-10	   22.7693	   23.1004	   18.5854	   -2.0637	
 -125.0000	-6.121847E-10	-6.121847E-10	   22.7719	   23.0990	   18.5892	   -2.0621	
 -130.0000	-6.126675E-10	-6.126675E-10	   22.7719	   23.0990	   18.5892	   -2.0621	
 -135.0000	-6.129054E-10	-6.129054E-10	   22.7693	   23.0984	   18.5727	   -2.0745	
 -140.0000	-6.134018E-10	-6.134018E-10	   22.7693	   23.0968	   18.5724	   -2.0761	
 -145.0000	-6.133004E-10	-6.133004E-10	   22.7693	   23.0968	   18.5724	   -2.0761	
 -150.0000	-6.138802E-10	-6.138802E-10	   22.7693	   23.0968	   18.5740	   -2.0750	
 -155.0000	-6.143349E-10	-6.143349E-10	   22.7693	   23.0968	   18.5740	   -2.0750	
 -160.0000	-6.142740E-10	-6.142740E-10	   22.7693	   23.0997	   18.5769	   -2.0705	
 -165.0000	-6.142118E-10	-6.142118E-10	   22.7693	   23.0997	   18.5769	   -2.0705	
 -170.0000	-6.147827E-10	-6.147827E-10	   22.7693	   23.1019	   18.5946	   -2.0558	
 -175.0000	-6.150706E-10	-6.150706E-10	   22.7693	   23.1019	   18.5946	   -2.0558	
 -180.0000	-6.146079E-10	-6.146079E-10	   22.7693	   23.1016	   18.5892	   -2.0599	
 -185.0000	-6.153316E-10	-6.153316E-10	   22.7693	   23.0978	   18.5797	   -2.0700	
 -190.0000	-6.151946E-10	-6.151946E-10	   22.7693	   23.0978	   18.5797	   -2.0700	
 -195.0000	-6.151933E-10	-6.151933E-10	   22.7719	   23.1009	   18.5727	   -2.0725	
 -200.0000	-6.156824E-10	-6.156824E-10	   22.7719	   23.1009	   18.5727	   -2.0725	
 -205.0000	-6.151402E-10	-6.151402E-10	   22.7693	   23.0988	   18.5686	   -2.0772	
 -210.0000	-6.155400E-10	-6.155400E-10	   22.7693	   23.0971	   18.5762	   -2.0731	
 -215.0000	-6.160966E-10	-6.160966E-10	   22.7693	   23.0971	   18.5762	   -2.0731	
 -220.0000	-6.166590E-10	-6.166590E-10	   22.7693	   23.1015	   18.5705	   -2.0737	
 -225.0000	-6.171404E-10	-6.171404E-10	   22.7693	   23.1015	   18.5705	   -2.0737	
 -230.0000	-6.166511E-10	-6.166511E-10	   22.7693	   23.1023	   18.5724	   -2.0716	
 -235.0000	-6.177016E-10	-6.177016E-10	   22.7693	   23.1023	   18.5724	   -2.0716	
 -240.0000	-6.172969E-10	-6.172969E-10	   22.7693	   23.0990	   18.5825	   -2.0669	
 -245.0000	-6.175541E-10	-6.175541E-10	   22.7693	   23.0990	   18.5825	   -2.0669	
 -250.0000	-6.173698E-10	-6.173698E-10	   22.7693	   23.1036	   18.5781	   -2.0664	
 -255.0000	-6.179253E-10	-6.179253E-10	   22.7693	   23.1020	   18.5750	   -2.0700	
 -260.0000	-6.181265E-10	-6.181265E-10	   22.7693	   23.1020	   18.5750	   -2.0700	
 -265.0000	-6.179937E-10	-6.179937E-10	   22.7693	   23.1006	   18.5712	   -2.0739	
 -270.0000	-6.185644E-10	-6.185644E-10	   22.7693	   23.1006	   18.5712	   -2.0739	
 -275.0000	-6.192064E-10	-6.192064E-10	   22.7693	   23.1004	   18.5829	   -2.0656	
 -280.0000	-6.191251E-10	-6.191251E-10	   22.7693	   23.1027	   18.5810	   -2.0650	
 -285.0000	-6.194716E-10	-6.194716E-10	   22.7693	   23.1027	   18.5810	   -2.0650	
 -290.0000	-6.197804E-10	-6.197804E-10	   22.7693	   23.1023	   18.5759	   -2.0690	
 -295.0000	-6.206755E-10	-6.206755E-10	   22.7693	   23.1023	   18.5759	   -2.0690	
 -300.0000	-6.203957E-10	-6.203957E-10	   22.7693	   23.1012	   18.5784	   -2.0681	
 -305.0000	-6.209717E-10	-6.209717E-10	   22.7693	   23.1012	   18.5784	   -2.0681	
 -310.0000	-6.205005E-10	-6.205005E-10	   22.7693	   23.1041	   18.5746	   -2.0685	
 -315.0000	-6.209436E-10	-6.209436E-10	   22.7693	   23.1041	   18.5718	   -2.0706	
 -320.0000	-6.210635E-10	-6.210635E-10	   22.7693	   23.1041	   18.5718	   -2.0706	
 -325.0000	-6.208138E-10	-6.208138E-10	   22.7693	   23.1034	   18.5582	   -2.0811	
 -330.0000	-6.215697E-10	-6.215697E-10	   22.7693	   23.1034	   18.5582	   -2.0811	
 -335.0000	-6.213299E-10	-6.213299E-10	   22.7693	   23.1019	   18.5674	   -2.0756	
 -340.0000	-6.218043E-10	-6.218043E-10	   22.7693	   23.1019	   18.5674	   -2.0756	
 -345.0000	-6.222834E-10	-6.222834E-10	   22.7693	   23.1017	   18.5661	   -2.0767	
 -350.0000	-6.215636E-10	-6.215636E-10	   22.7693	   23.1072	   18.5648	   -2.0731	
 -355.0000	-6.217022E-10	-6.217022E-10	   22.7693	   23.1072	   18.5648	   -2.0731	
 -360.0000	-6.216161E-10	-6.216161E-10	   22.7693	   23.1072	   18.5743	   -2.0662	
 -365.0000	-6.219547E-10	-6.219547E-10	   22.7693	   23.1072	   18.5743	   -2.0662	
 -370.0000	-6.224704E-10	-6.224704E-10	   22.7693	   23.1026	   18.5686	   -2.0741	
 -375.0000	-6.221316E-10	-6.221316E-10	   22.7693	   23.1026	   18.5686	   -2.0741	
 -380.0000	-6.222912E-10	-6.222912E-10	   22.7693	   23.1041	   18.5740	   -2.0690	
 -385.0000	-6.226516E-10	-6.226516E-10	   22.7693	   23.1041	   18.5740	   -2.0690	
 -390.0000	-6.224546E-10	-6.224546E-10	   22.7693	   23.1045	   18.5696	   -2.0719	
 -395.0000	-6.230537E-10	-6.230537E-10	   22.7693	   23.1029	   18.5664	   -2.0755	
 -400.0000	-6.228521E-10	-6.228521E-10	   22.7693	   23.1029	   18.5664	   -2.0755	
 -410.0000	-6.232647E-10	-6.232647E-10	   22.7693	   23.1018	   18.5753	   -2.0699	
 -420.0000	-6.238872E-10	-6.238872E-10	   22.7693	   23.1018	   18.5753	   -2.0699	
 -430.0000	-6.244449E-10	-6.244449E-10	   22.7693	   23.1055	   18.5629	   -2.0759	
 -440.0000	-6.244412E-10	-6.244412E-10	   22.7693	   23.1033	   18.5737	   -2.0698	
 -450.0000	-6.250485E-10	-6.250485E-10	   22.7693	   23.1033	   18.5737	   -2.0698	
 -460.0000	-6.257352E-10	-6.257352E-10	   22.7693	   23.1012	   18.5670	   -2.0764	
 -470.0000	-6.259850E-10	-6.259850E-10	   22.7693	   23.1012	   18.5670	   -2.0764	
 -480.0000	-6.259253E-10	-6.259253E-10	   22.7693	   23.1079	   18.5648	   -2.0725	
 -490.0000	-6.261231E-10	-6.261231E-10	   22.7693	   23.1025	   18.5525	   -2.0859	
 -500.0000	-6.271680E-10	-6.271680E-10	   22.7693	   23.1025	   18.5525	   -2.0859	
 -510.0000	-6.274558E-10	-6.274558E-10	   22.7693	   23.1024	   18.5560	   -2.0835	
 -520.0000	-6.275579E-10	-6.275579E-10	   22.7693	   23.1024	   18.5560	   -2.0835	
 -530.0000	-6.279531E-10	-6.279531E-10	   22.7668	   23.1017	   18.5446	   -2.0924	
 -540.0000	-6.286613E-10	-6.286613E-10	   22.7693	   23.1009	   18.5497	   -2.0893	
 -550.0000	-6.292336E-10	-6.292336E-10	   22.7693	   23.1009	   18.5497	   -2.0893	
 -560.0000	-6.302247E-10	-6.302247E-10	   22.7693	   23.1034	   18.5354	   -2.0977	
 -570.0000	-6.302640E-10	-6.302640E-10	   22.7693	   23.1034	   18.5354	   -2.0977	
 -580.0000	-6.308987E-10	-6.308987E-10	   22.7693	   23.1043	   18.5345	   -2.0976	
 -590.0000	-6.312182E-10	-6.312182E-10	   22.7693	   23.1016	   18.5272	   -2.1051	
 -600.0000	-6.318473E-10	-6.318473E-10	   22.7693	   23.1016	   18.5272	   -2.1051	
 -610.0000	-6.320307E-10	-6.320307E-10	   22.7693	   23.1029	   18.5386	   -2.0958	
 -620.0000	-6.327821E-10	-6.327821E-10	   22.7693	   23.1029	   18.5386	   -2.0958	
 -630.0000	-6.336138E-10	-6.336138E-10	   22.7693	   23.1071	   18.5259	   -2.1016	
 -640.0000	-6.346728E-10	-6.346728E-10	   22.7693	   23.1093	   18.5357	   -2.0926	
 -650.0000	-6.355080E-10	-6.355080E-10	   22.7693	   23.1093	   18.5357	   -2.0926	
 -660.0000	-6.361636E-10	-6.361636E-10	   22.7693	   23.1071	   18.5316	   -2.0974	
 -670.0000	-6.372384E-10	-6.372384E-10	   22.7693	   23.1071	   18.5316	   -2.0974	
 -680.0000	-6.386264E-10	-6.386264E-10	   22.7693	   23.1114	   18.5316	   -2.0939	
 -690.0000	-6.401702E-10	-6.401702E-10	   22.7693	   23.1087	   18.5275	   -2.0991	
 -700.0000	-6.413649E-10	-6.413649E-10	   22.7693	   23.1087	   18.5275	   -2.0991	
 -710.0000	-6.425334E-10	-6.425334E-10	   22.7668	   23.1087	   18.5332	   -2.0950	
 -720.0000	-6.447015E-10	-6.447015E-10	   22.7668	   23.1087	   18.5332	   -2.0950	
 -730.0000	-6.464271E-10	-6.464271E-10	   22.7693	   23.1086	   18.5247	   -2.1013	
 -740.0000	-6.485472E-10	-6.485472E-10	   22.7693	   23.1086	   18.5247	   -2.1013	
 -750.0000	-6.508242E-10	-6.508242E-10	   22.7693	   23.1178	   18.5250	   -2.0935	
 -760.0000	-6.532762E-10	-6.532762E-10	   22.7693	   23.1178	   18.5256	   -2.0930	
 -770.0000	-6.561104E-10	-6.561104E-10	   22.7693	   23.1178	   18.5256	   -2.0930	
 -780.0000	-6.586907E-10	-6.586907E-10	   22.7693	   23.1141	   18.5101	   -2.1074	
 -790.0000	-6.618595E-10	-6.618595E-10	   22.7693	   23.1141	   18.5101	   -2.1074	
 -800.0000	-6.656972E-10	-6.656972E-10	   22.7693	   23.1120	   18.5089	   -2.1100	
 -810.0000	-6.698987E-10	-6.698987E-10	   22.7693	   23.1166	   18.5079	   -2.1070	
 -820.0000	-6.731158E-10	-6.731158E-10	   22.7693	   23.1166	   18.5079	   -2.1070	
 -830.0000	-6.776235E-10	-6.776235E-10	   22.7693	   23.1159	   18.5063	   -2.1087	
 -840.0000	-6.828773E-10	-6.828773E-10	   22.7693	   23.1159	   18.5063	   -2.1087	
 -850.0000	-6.879777E-10	-6.879777E-10	   22.7693	   23.1139	   18.4997	   -2.1152	
 -860.0000	-6.933443E-10	-6.933443E-10	   22.7719	   23.1136	   18.4991	   -2.1159	
 -870.0000	-7.003440E-10	-7.003440E-10	   22.7719	   23.1136	   18.4991	   -2.1159	
 -880.0000	-7.064191E-10	-7.064191E-10	   22.7693	   23.1136	   18.4975	   -2.1171	
 -890.0000	-7.139759E-10	-7.139759E-10	   22.7693	   23.1136	   18.4975	   -2.1171	
 -900.0000	-7.223664E-10	-7.223664E-10	   22.7693	   23.1164	   18.4937	   -2.1175	
 -910.0000	-7.302703E-10	-7.302703E-10	   22.7693	   23.1164	   18.4937	   -2.1175	
 -920.0000	-7.402649E-10	-7.402649E-10	   22.7693	   23.1179	   18.4972	   -2.1138	
 -930.0000	-7.504192E-10	-7.504192E-10	   22.7693	   23.1186	   18.5028	   -2.1090	
 -940.0000	-7.621306E-10	-7.621306E-10	   22.7693	   23.1186	   18.5028	   -2.1090	
 -950.0000	-7.736335E-10	-7.736335E-10	   22.7693	   23.1188	   18.4959	   -2.1140	
 -960.0000	-7.867934E-10	-7.867934E-10	   22.7693	   23.1188	   18.4959	   -2.1140	
 -970.0000	-8.010918E-10	-8.010918E-10	   22.7693	   23.1205	   18.5057	   -2.1054	
 -980.0000	-8.162446E-10	-8.162446E-10	   22.7693	   23.1205	   18.5057	   -2.1054	
 -990.0000	-8.330165E-10	-8.330165E-10	   22.7693	   23.1200	   18.5060	   -2.1056	
-1000.0000	-8.511800E-10	-8.511800E-10	   22.7693	   23.1204	   18.4997	   -2.1099	
