GCD Test
Bias: 5000.000000
IV_34341_012_PSS_HM_XX_DIODEHALFPSTOP_GRConnected
Date/Time: 6/30/2021 1:36:28 PM
Sensor Name: DIODEHALFPSTOP
Type: P
Annealing Status: Not Irradiated
Environment: 20C
Tester: Andrew Kent

Time Delay per Ramp Step (s): 0.500

CV Time Delay per Measurement (s) :0.500

AC Voltage (V): 0.500

Current Number of measurements per voltage: 1.000

IV Time Delay per Measurement (s) :0.000


BiasVoltage	Total Current_Avg	Total Current_0	Bias Current_Avg	Bias Current_0	Temperature	Air_Temp	Humidity	Dewpoint	
   -5.0000	1.8300E-10	1.8300E-10	-8.288007E-12	-8.288007E-12	   19.9292	   16.9389	   10.6252	  -13.8794	
  -10.0000	5.7000E-11	5.7000E-11	-8.888343E-12	-8.888343E-12	   19.9292	   16.9581	   10.6252	  -14.1152	
  -15.0000	1.1200E-10	1.1200E-10	-9.003848E-12	-9.003848E-12	   20.0528	   16.9723	   10.4023	  -14.3622	
  -20.0000	7.5000E-11	7.5000E-11	-9.213668E-12	-9.213668E-12	   20.1326	   16.9801	   10.1733	  -14.6263	
  -25.0000	9.5000E-11	9.5000E-11	-9.490714E-12	-9.490714E-12	   20.1943	   16.9949	    9.9614	  -14.8698	
  -30.0000	-4.8000E-11	-4.8000E-11	-1.006212E-11	-1.006212E-11	   20.2046	   17.0068	    9.7729	  -15.0915	
  -35.0000	-1.0000E-10	-1.0000E-10	-1.002729E-11	-1.002729E-11	   20.1789	   17.0255	    9.5848	  -15.3117	
  -40.0000	-4.5000E-11	-4.5000E-11	-1.012690E-11	-1.012690E-11	   20.1068	   17.0259	    9.4168	  -15.5242	
  -45.0000	-1.4500E-10	-1.4500E-10	-1.044347E-11	-1.044347E-11	   20.0116	   17.0101	    9.2834	  -15.7076	
  -50.0000	-1.5000E-10	-1.5000E-10	-1.046628E-11	-1.046628E-11	   19.8880	   17.0025	    9.1423	  -15.8971	
  -55.0000	-1.8100E-10	-1.8100E-10	-1.066653E-11	-1.066653E-11	   19.7671	   16.9935	    9.0215	  -16.0632	
  -60.0000	-1.4900E-10	-1.4900E-10	-1.117519E-11	-1.117519E-11	   19.6693	   16.9739	    8.9089	  -16.2282	
  -65.0000	-2.1200E-10	-2.1200E-10	-1.158180E-11	-1.158180E-11	   19.6127	   16.9849	    8.8156	  -16.3456	
  -70.0000	-1.7200E-10	-1.7200E-10	-1.238604E-11	-1.238604E-11	   19.6101	   16.9819	    8.7306	  -16.4636	
  -75.0000	-2.2500E-10	-2.2500E-10	-1.268387E-11	-1.268387E-11	   19.6538	   16.9791	    8.6724	  -16.5454	
  -80.0000	-2.2600E-10	-2.2600E-10	-1.283462E-11	-1.283462E-11	   19.7388	   16.9946	    8.6012	  -16.6319	
  -85.0000	-2.7900E-10	-2.7900E-10	-1.297029E-11	-1.297029E-11	   19.9241	   16.9946	    8.4937	  -16.6319	
  -90.0000	-2.8300E-10	-2.8300E-10	-1.307744E-11	-1.307744E-11	   19.9241	   17.0069	    8.4937	  -16.7722	
  -95.0000	-2.8200E-10	-2.8200E-10	-1.400595E-11	-1.400595E-11	   20.0425	   17.0137	    8.4554	  -16.8208	
 -100.0000	-2.1000E-10	-2.1000E-10	-1.412247E-11	-1.412247E-11	   20.1918	   17.0137	    8.3795	  -16.8208	
 -105.0000	-2.8500E-10	-2.8500E-10	-1.365190E-11	-1.365190E-11	   20.1918	   17.0366	    8.3795	  -16.9107	
 -110.0000	-2.7600E-10	-2.7600E-10	-1.376884E-11	-1.376884E-11	   20.2149	   17.0371	    8.3498	  -16.9525	
 -115.0000	-3.3200E-10	-3.3200E-10	-1.355168E-11	-1.355168E-11	   20.1429	   17.0371	    8.2998	  -16.9525	
 -120.0000	-2.2700E-10	-2.2700E-10	-1.398476E-11	-1.398476E-11	   20.1429	   17.0277	    8.2998	  -17.0308	
 -125.0000	-2.0900E-10	-2.0900E-10	-1.413348E-11	-1.413348E-11	   19.9447	   17.0056	    8.2638	  -17.0990	
 -130.0000	-3.1900E-10	-3.1900E-10	-1.423574E-11	-1.423574E-11	   19.7722	   17.0056	    8.2451	  -17.0990	
 -135.0000	-3.4000E-10	-3.4000E-10	-1.448956E-11	-1.448956E-11	   19.6435	   16.9993	    8.2201	  -17.1305	
 -140.0000	-2.8400E-10	-2.8400E-10	-1.424959E-11	-1.424959E-11	   19.5586	   16.9851	    8.2271	  -17.1772	
 -145.0000	-3.2900E-10	-3.2900E-10	-1.384991E-11	-1.384991E-11	   19.5586	   16.9737	    8.2271	  -17.1757	
 -150.0000	-4.2200E-10	-4.2200E-10	-1.445636E-11	-1.445636E-11	   19.5509	   16.9704	    8.2195	  -17.1892	
 -155.0000	-4.4600E-10	-4.4600E-10	-1.474318E-11	-1.474318E-11	   19.6049	   16.9675	    8.2097	  -17.2055	
 -160.0000	-4.1000E-10	-4.1000E-10	-1.515366E-11	-1.515366E-11	   19.7516	   16.9675	    8.2052	  -17.2055	
 -165.0000	-3.8500E-10	-3.8500E-10	-1.518319E-11	-1.518319E-11	   19.8494	   16.9726	    8.2119	  -17.2080	
 -170.0000	-3.4500E-10	-3.4500E-10	-1.593916E-11	-1.593916E-11	   19.9575	   16.9758	    8.2119	  -17.1961	
 -175.0000	-4.6200E-10	-4.6200E-10	-1.639650E-11	-1.639650E-11	   20.0399	   16.9883	    8.2005	  -17.1989	
 -180.0000	-4.8300E-10	-4.8300E-10	-1.594935E-11	-1.594935E-11	   20.0965	   16.9883	    8.1923	  -17.2031	
 -185.0000	-4.8900E-10	-4.8900E-10	-1.625410E-11	-1.625410E-11	   20.1145	   16.9998	    8.1787	  -17.2063	
 -190.0000	-5.0500E-10	-5.0500E-10	-1.620500E-11	-1.620500E-11	   20.1145	   17.0087	    8.1787	  -17.2194	
 -195.0000	-3.8400E-10	-3.8400E-10	-1.663666E-11	-1.663666E-11	   20.0811	   17.0021	    8.1673	  -17.2408	
 -200.0000	-4.7600E-10	-4.7600E-10	-1.629077E-11	-1.629077E-11	   20.0245	   16.9900	    8.1720	  -17.2430	
 -205.0000	-3.9800E-10	-3.9800E-10	-1.697116E-11	-1.697116E-11	   19.9550	   16.9831	    8.1588	  -17.2674	
 -210.0000	-4.7100E-10	-4.7100E-10	-1.707363E-11	-1.707363E-11	   19.8623	   16.9824	    8.1626	  -17.2624	
 -215.0000	-5.2800E-10	-5.2800E-10	-1.768068E-11	-1.768068E-11	   19.7825	   16.9632	    8.1613	  -17.2787	
 -220.0000	-4.0500E-10	-4.0500E-10	-1.747046E-11	-1.747046E-11	   19.7207	   16.9643	    8.1553	  -17.2865	
 -225.0000	-5.6300E-10	-5.6300E-10	-1.753911E-11	-1.753911E-11	   19.6976	   16.9643	    8.1578	  -17.2865	
 -230.0000	-5.6900E-10	-5.6900E-10	-1.836678E-11	-1.836678E-11	   19.6976	   16.9569	    8.1578	  -17.2884	
 -235.0000	-5.6800E-10	-5.6800E-10	-1.855461E-11	-1.855461E-11	   19.7516	   16.9707	    8.1584	  -17.2772	
 -240.0000	-6.1600E-10	-6.1600E-10	-1.889195E-11	-1.889195E-11	   19.8263	   16.9682	    8.1679	  -17.2653	
 -245.0000	-5.2900E-10	-5.2900E-10	-1.988219E-11	-1.988219E-11	   19.9266	   16.9689	    8.1613	  -17.2744	
 -250.0000	-5.9900E-10	-5.9900E-10	-1.947293E-11	-1.947293E-11	   20.0296	   16.9673	    8.1654	  -17.2696	
 -255.0000	-6.5400E-10	-6.5400E-10	-1.939878E-11	-1.939878E-11	   20.1171	   16.9673	    8.1509	  -17.2907	
 -260.0000	-6.6100E-10	-6.6100E-10	-1.953017E-11	-1.953017E-11	   20.1840	   16.9743	    8.1645	  -17.2657	
 -265.0000	-6.6200E-10	-6.6200E-10	-1.926596E-11	-1.926596E-11	   20.2201	   16.9844	    8.1591	  -17.2660	
 -270.0000	-6.3500E-10	-6.3500E-10	-1.931668E-11	-1.931668E-11	   20.2124	   16.9752	    8.1594	  -17.2724	
 -275.0000	-5.3300E-10	-5.3300E-10	-1.913334E-11	-1.913334E-11	   20.1042	   16.9752	    8.1540	  -17.2724	
 -280.0000	-4.9700E-10	-4.9700E-10	-1.853484E-11	-1.853484E-11	   20.1042	   16.9768	    8.1540	  -17.2790	
 -285.0000	-6.1100E-10	-6.1100E-10	-1.923541E-11	-1.923541E-11	   19.9833	   16.9608	    8.1452	  -17.3039	
 -290.0000	-6.0400E-10	-6.0400E-10	-1.874752E-11	-1.874752E-11	   19.8546	   16.9533	    8.1420	  -17.3141	
 -295.0000	-5.5200E-10	-5.5200E-10	-1.870861E-11	-1.870861E-11	   19.7388	   16.9444	    8.1395	  -17.3244	
 -300.0000	-6.7900E-10	-6.7900E-10	-1.876238E-11	-1.876238E-11	   19.6616	   16.9294	    8.1385	  -17.3371	
 -305.0000	-6.1200E-10	-6.1200E-10	-1.942872E-11	-1.942872E-11	   19.6255	   16.9306	    8.1385	  -17.3362	
 -310.0000	-7.0200E-10	-7.0200E-10	-1.882228E-11	-1.882228E-11	   19.6461	   16.9350	    8.1537	  -17.3108	
 -315.0000	-6.6900E-10	-6.6900E-10	-1.962755E-11	-1.962755E-11	   19.7156	   16.9377	    8.1496	  -17.3148	
 -320.0000	-6.2700E-10	-6.2700E-10	-1.951307E-11	-1.951307E-11	   19.8005	   16.9389	    8.1426	  -17.3240	
 -325.0000	-7.7400E-10	-7.7400E-10	-2.011034E-11	-2.011034E-11	   19.9086	   16.9578	    8.1502	  -17.2988	
 -330.0000	-7.0900E-10	-7.0900E-10	-2.002030E-11	-2.002030E-11	   20.0167	   16.9551	    8.1429	  -17.3114	
 -335.0000	-6.8800E-10	-6.8800E-10	-2.022340E-11	-2.022340E-11	   20.1042	   16.9657	    8.1515	  -17.2910	
 -340.0000	-7.7600E-10	-7.7600E-10	-2.007530E-11	-2.007530E-11	   20.1609	   16.9718	    8.1486	  -17.2906	
 -345.0000	-6.8900E-10	-6.8900E-10	-2.018387E-11	-2.018387E-11	   20.1892	   16.9667	    8.1404	  -17.3064	
 -350.0000	-7.5200E-10	-7.5200E-10	-1.967806E-11	-1.967806E-11	   20.1660	   16.9679	    8.1499	  -17.2917	
 -355.0000	-7.0100E-10	-7.0100E-10	-1.989909E-11	-1.989909E-11	   20.0528	   16.9571	    8.1259	  -17.3347	
 -360.0000	-6.3600E-10	-6.3600E-10	-1.942506E-11	-1.942506E-11	   19.9112	   16.9571	    8.1350	  -17.3347	
 -365.0000	-6.4300E-10	-6.4300E-10	-1.932096E-11	-1.932096E-11	   19.7928	   16.9388	    8.1316	  -17.3351	
 -370.0000	-7.6400E-10	-7.6400E-10	-1.926352E-11	-1.926352E-11	   19.7053	   16.9391	    8.1328	  -17.3399	
 -375.0000	-7.9100E-10	-7.9100E-10	-1.942200E-11	-1.942200E-11	   19.6513	   16.9135	    8.1341	  -17.3573	
 -380.0000	-7.9500E-10	-7.9500E-10	-1.950288E-11	-1.950288E-11	   19.6513	   16.9147	    8.1436	  -17.3545	
 -385.0000	-7.0500E-10	-7.0500E-10	-1.957519E-11	-1.957519E-11	   19.7027	   16.9198	    8.1369	  -17.3369	
 -390.0000	-8.2300E-10	-8.2300E-10	-1.964363E-11	-1.964363E-11	   19.7027	   16.9303	    8.1369	  -17.3387	
 -395.0000	-8.7600E-10	-8.7600E-10	-2.003761E-11	-2.003761E-11	   19.8083	   16.9212	    8.1417	  -17.3386	
 -400.0000	-9.1900E-10	-9.1900E-10	-2.047864E-11	-2.047864E-11	   19.9009	   16.9290	    8.1483	  -17.3231	
 -410.0000	-9.6000E-10	-9.6000E-10	-2.006715E-11	-2.006715E-11	   19.9961	   16.9389	    8.1467	  -17.3180	
 -420.0000	-1.0430E-9	-1.0430E-9	-2.019447E-11	-2.019447E-11	   20.0862	   16.9376	    8.1490	  -17.3158	
 -430.0000	-1.1020E-9	-1.1020E-9	-2.033726E-11	-2.033726E-11	   20.1712	   16.9376	    8.1325	  -17.3158	
 -440.0000	-1.0740E-9	-1.0740E-9	-1.995164E-11	-1.995164E-11	   20.1712	   16.9522	    8.1325	  -17.3287	
 -450.0000	-1.1010E-9	-1.1010E-9	-2.043505E-11	-2.043505E-11	   20.1789	   16.9509	    8.1306	  -17.3324	
 -460.0000	-1.0720E-9	-1.0720E-9	-1.967807E-11	-1.967807E-11	   20.1531	   16.9478	    8.1335	  -17.3307	
 -470.0000	-1.1430E-9	-1.1430E-9	-1.992984E-11	-1.992984E-11	   20.0991	   16.9397	    8.1259	  -17.3478	
 -480.0000	-1.0070E-9	-1.0070E-9	-2.008058E-11	-2.008058E-11	   20.0013	   16.9300	    8.1240	  -17.3578	
 -490.0000	-1.0770E-9	-1.0770E-9	-1.961897E-11	-1.961897E-11	   19.8983	   16.9212	    8.1316	  -17.3534	
 -500.0000	-1.0890E-9	-1.0890E-9	-1.961838E-11	-1.961838E-11	   19.7851	   16.9149	    8.1214	  -17.3728	
 -510.0000	-1.1010E-9	-1.1010E-9	-1.954463E-11	-1.954463E-11	   19.7027	   16.9000	    8.1290	  -17.3729	
 -520.0000	-1.2590E-9	-1.2590E-9	-1.994941E-11	-1.994941E-11	   19.6461	   16.8936	    8.1376	  -17.3654	
 -530.0000	-1.4180E-9	-1.4180E-9	-1.958497E-11	-1.958497E-11	   19.6384	   16.9019	    8.1211	  -17.3830	
 -540.0000	-1.4010E-9	-1.4010E-9	-2.060657E-11	-2.060657E-11	   19.7027	   16.9019	    8.1363	  -17.3830	
 -550.0000	-1.3960E-9	-1.3960E-9	-2.053365E-11	-2.053365E-11	   19.7027	   16.8916	    8.1363	  -17.3686	
 -560.0000	-1.4440E-9	-1.4440E-9	-2.110179E-11	-2.110179E-11	   19.7928	   16.9099	    8.1436	  -17.3444	
 -570.0000	-1.4500E-9	-1.4500E-9	-2.081008E-11	-2.081008E-11	   19.9421	   16.9099	    8.1635	  -17.3444	
 -580.0000	-1.5130E-9	-1.5130E-9	-2.149841E-11	-2.149841E-11	   19.9421	   16.9175	    8.1635	  -17.3097	
 -590.0000	-1.5360E-9	-1.5360E-9	-2.192987E-11	-2.192987E-11	   20.0425	   16.9383	    8.1445	  -17.3217	
 -600.0000	-1.5200E-9	-1.5200E-9	-2.118083E-11	-2.118083E-11	   20.1248	   16.9281	    8.1398	  -17.3362	
 -610.0000	-1.6710E-9	-1.6710E-9	-2.124357E-11	-2.124357E-11	   20.1815	   16.9439	    8.1553	  -17.3018	
 -620.0000	-1.4660E-9	-1.4660E-9	-2.089604E-11	-2.089604E-11	   20.1943	   16.9439	    8.1417	  -17.3018	
 -630.0000	-1.5360E-9	-1.5360E-9	-2.109160E-11	-2.109160E-11	   20.1943	   16.9439	    8.1417	  -17.3216	
 -640.0000	-1.4500E-9	-1.4500E-9	-2.118816E-11	-2.118816E-11	   20.1429	   16.9461	    8.1410	  -17.3209	
 -650.0000	-1.4200E-9	-1.4200E-9	-2.060819E-11	-2.060819E-11	   20.0759	   16.9211	    8.1458	  -17.3328	
 -660.0000	-1.4980E-9	-1.4980E-9	-2.075221E-11	-2.075221E-11	   19.9318	   16.9231	    8.1540	  -17.3193	
 -670.0000	-1.4100E-9	-1.4100E-9	-2.053180E-11	-2.053180E-11	   19.9318	   16.9231	    8.1540	  -17.3193	
 -680.0000	-1.4500E-9	-1.4500E-9	-2.018672E-11	-2.018672E-11	   19.8005	   16.9065	    8.1439	  -17.3465	
 -690.0000	-1.5630E-9	-1.5630E-9	-2.021585E-11	-2.021585E-11	   19.7027	   16.9091	    8.1490	  -17.3372	
 -700.0000	-1.5530E-9	-1.5530E-9	-2.028206E-11	-2.028206E-11	   19.6152	   16.9091	    8.1575	  -17.3372	
 -710.0000	-1.7400E-9	-1.7400E-9	-2.046723E-11	-2.046723E-11	   19.6152	   16.9091	    8.1575	  -17.3248	
 -720.0000	-1.7260E-9	-1.7260E-9	-2.103172E-11	-2.103172E-11	   19.6204	   16.8946	    8.1657	  -17.3237	
 -730.0000	-1.8120E-9	-1.8120E-9	-2.094045E-11	-2.094045E-11	   19.7105	   16.8946	    8.1758	  -17.3237	
 -740.0000	-1.8540E-9	-1.8540E-9	-2.147396E-11	-2.147396E-11	   19.7105	   16.8874	    8.1758	  -17.3144	
 -750.0000	-1.9760E-9	-1.9760E-9	-2.156991E-11	-2.156991E-11	   19.8185	   16.8894	    8.1739	  -17.3157	
 -760.0000	-1.7820E-9	-1.7820E-9	-2.162103E-11	-2.162103E-11	   19.9601	   16.8894	    8.1831	  -17.3157	
 -770.0000	-2.0020E-9	-2.0020E-9	-2.193964E-11	-2.193964E-11	   19.9601	   16.8956	    8.1831	  -17.2978	
 -780.0000	-2.0770E-9	-2.0770E-9	-2.230999E-11	-2.230999E-11	   20.0708	   16.9060	    8.1935	  -17.2749	
 -790.0000	-1.9680E-9	-1.9680E-9	-2.186304E-11	-2.186304E-11	   20.1326	   16.9182	    8.1996	  -17.2571	
 -800.0000	-1.8290E-9	-1.8290E-9	-2.241265E-11	-2.241265E-11	   20.1763	   16.9182	    8.1831	  -17.2571	
 -810.0000	-1.9090E-9	-1.9090E-9	-2.180662E-11	-2.180662E-11	   20.1763	   16.9281	    8.1831	  -17.2734	
 -820.0000	-1.9320E-9	-1.9320E-9	-2.173431E-11	-2.173431E-11	   20.1480	   16.9102	    8.1983	  -17.2649	
 -830.0000	-1.8630E-9	-1.8630E-9	-2.100096E-11	-2.100096E-11	   20.0888	   16.8986	    8.1863	  -17.2910	
 -840.0000	-1.9630E-9	-1.9630E-9	-2.109669E-11	-2.109669E-11	   20.0013	   16.8930	    8.1917	  -17.2874	
 -850.0000	-1.9110E-9	-1.9110E-9	-2.127901E-11	-2.127901E-11	   19.8417	   16.8930	    8.1866	  -17.2874	
 -860.0000	-1.6410E-9	-1.6410E-9	-2.123276E-11	-2.123276E-11	   19.8417	   16.8930	    8.1866	  -17.2947	
 -870.0000	-1.6920E-9	-1.6920E-9	-2.138495E-11	-2.138495E-11	   19.7233	   16.8752	    8.1948	  -17.2962	
 -880.0000	-1.9610E-9	-1.9610E-9	-2.086304E-11	-2.086304E-11	   19.6487	   16.8643	    8.2097	  -17.2830	
 -890.0000	-2.0900E-9	-2.0900E-9	-2.062918E-11	-2.062918E-11	   19.6049	   16.8552	    8.2052	  -17.2962	
 -900.0000	-2.1700E-9	-2.1700E-9	-2.121953E-11	-2.121953E-11	   19.6410	   16.8552	    8.2027	  -17.2962	
 -910.0000	-2.2700E-9	-2.2700E-9	-2.166871E-11	-2.166871E-11	   19.6410	   16.8574	    8.2027	  -17.2982	
 -920.0000	-2.2660E-9	-2.2660E-9	-2.193823E-11	-2.193823E-11	   19.7207	   16.8664	    8.2005	  -17.2946	
 -930.0000	-2.3710E-9	-2.3710E-9	-2.245891E-11	-2.245891E-11	   19.8083	   16.8778	    8.2233	  -17.2532	
 -940.0000	-2.3270E-9	-2.3270E-9	-2.264795E-11	-2.264795E-11	   19.9112	   16.8722	    8.2154	  -17.2688	
 -950.0000	-2.2080E-9	-2.2080E-9	-2.254345E-11	-2.254345E-11	   20.0450	   16.8722	    8.2185	  -17.2688	
 -960.0000	-2.3610E-9	-2.3610E-9	-2.294598E-11	-2.294598E-11	   20.0450	   16.8845	    8.2185	  -17.2550	
 -970.0000	-2.4530E-9	-2.4530E-9	-2.242061E-11	-2.242061E-11	   20.1300	   16.8912	    8.2132	  -17.2577	
 -980.0000	-2.5130E-9	-2.5130E-9	-2.322975E-11	-2.322975E-11	   20.1712	   16.8885	    8.2122	  -17.2611	
 -990.0000	-2.4920E-9	-2.4920E-9	-2.277873E-11	-2.277873E-11	   20.1634	   16.8885	    8.2125	  -17.2611	
-1000.0000	-2.5520E-9	-2.5520E-9	-2.284229E-11	-2.284229E-11	   20.1634	   16.8949	    8.2125	  -17.2559	
