GCD Test
Bias: 5000.000000
CV_D0_CO138_LargeDiode_GRConnected_Irradiated_80min
Date/Time: 8/4/2021 1:52:55 PM
Sensor Name: CO138
Type: N
Annealing Status: Irradiated and Annealed at 60C for 80 minute
Environment: 20C
Tester: Andrew Kent

Time Delay per Ramp Step (s): 0.500

CV Time Delay per Measurement (s) :0.500

AC Voltage (V): 0.500

Current Number of measurements per voltage: 4.000

IV Time Delay per Measurement (s) :0.000


BiasVoltage	LCR_Cp_freq1000.0	LCR_Cp_freq10000.0	LCR_Rp_freq1000.0	LCR_Rp_freq10000.0	Temperature	Air_Temp	Humidity	Dewpoint	
    1.0000	3.722E-11	2.019E-11	1.762E+6	1.472E+6	  -20.0440	    8.8745	    4.8125	  -29.1277	
    2.0000	4.125E-11	2.023E-11	1.859E+6	1.513E+6	  -20.0567	    8.8809	    4.7913	  -29.1699	
    3.0000	4.371E-11	2.025E-11	1.936E+6	1.539E+6	  -20.0516	    8.8809	    4.7647	  -29.2288	
    4.0000	4.514E-11	2.026E-11	2.016E+6	1.555E+6	  -20.0364	    8.8975	    4.7609	  -29.2254	
    5.0000	4.654E-11	2.027E-11	2.070E+6	1.581E+6	  -20.0211	    8.8672	    4.7615	  -29.2457	
    6.0000	4.717E-11	2.029E-11	2.139E+6	1.611E+6	  -19.9906	    8.8481	    4.7511	  -29.2826	
    7.0000	4.772E-11	2.032E-11	2.198E+6	1.618E+6	  -19.9575	    8.8359	    4.7679	  -29.2540	
    8.0000	4.788E-11	2.034E-11	2.265E+6	1.651E+6	  -19.9423	    8.8442	    4.7622	  -29.2607	
    9.0000	4.787E-11	2.037E-11	2.335E+6	1.673E+6	  -19.9448	    8.8485	    4.7688	  -29.2429	
   10.0000	4.769E-11	2.039E-11	2.412E+6	1.708E+6	  -19.9448	    8.8727	    4.7552	  -29.2558	
   20.0000	4.705E-11	2.054E-11	3.084E+6	1.904E+6	  -19.9473	    8.8408	    4.7568	  -29.2751	
   30.0000	4.582E-11	2.057E-11	3.588E+6	2.039E+6	  -19.9779	    8.8408	    4.7631	  -29.2611	
   40.0000	4.460E-11	2.055E-11	4.018E+6	2.170E+6	  -20.0135	    8.8105	    4.7751	  -29.2561	
   50.0000	4.343E-11	2.053E-11	4.406E+6	2.287E+6	  -20.0338	    8.9305	    4.7948	  -29.1266	
   60.0000	4.234E-11	2.051E-11	4.765E+6	2.387E+6	  -20.0465	    8.8883	    4.8099	  -29.1234	
   70.0000	4.124E-11	2.048E-11	5.114E+6	2.501E+6	  -20.0593	    8.8368	    4.8172	  -29.1443	
   80.0000	4.039E-11	2.048E-11	5.422E+6	2.581E+6	  -20.0644	    8.8106	    4.8403	  -29.1124	
   90.0000	3.967E-11	2.044E-11	5.705E+6	2.698E+6	  -20.0567	    8.8904	    4.8387	  -29.0586	
  100.0000	3.894E-11	2.042E-11	5.986E+6	2.785E+6	  -20.0262	    8.8825	    4.8425	  -29.0560	
  120.0000	3.754E-11	2.039E-11	6.554E+6	2.965E+6	  -19.9855	    8.8292	    4.8599	  -29.0562	
  140.0000	3.632E-11	2.032E-11	7.087E+6	3.187E+6	  -19.9753	    8.8666	    4.8871	  -28.9700	
  160.0000	3.516E-11	2.025E-11	7.628E+6	3.419E+6	  -19.9575	    8.8549	    4.9330	  -28.8793	
  180.0000	3.417E-11	2.019E-11	8.153E+6	3.673E+6	  -19.9270	    8.7753	    5.0228	  -28.7446	
  200.0000	3.319E-11	2.014E-11	8.727E+6	3.927E+6	  -19.9168	    8.8144	    5.0481	  -28.6629	
  220.0000	3.218E-11	2.007E-11	9.354E+6	4.252E+6	  -19.9423	    8.8144	    5.0851	  -28.5851	
  240.0000	3.123E-11	2.002E-11	1.002E+7	4.614E+6	  -19.9601	    8.7624	    5.0933	  -28.6054	
  260.0000	3.032E-11	1.997E-11	1.075E+7	4.981E+6	  -20.0059	    8.7624	    5.1088	  -28.5730	
  280.0000	2.949E-11	1.992E-11	1.154E+7	5.407E+6	  -20.0415	    8.7885	    5.0860	  -28.6017	
  300.0000	2.869E-11	1.988E-11	1.239E+7	5.869E+6	  -20.0618	    8.8159	    5.0835	  -28.5873	
  320.0000	2.789E-11	1.985E-11	1.338E+7	6.395E+6	  -20.0720	    8.7722	    5.0560	  -28.6767	
  340.0000	2.717E-11	1.982E-11	1.445E+7	6.980E+6	  -20.0745	    8.7696	    5.0395	  -28.7132	
  360.0000	2.645E-11	1.979E-11	1.569E+7	7.677E+6	  -20.0644	    8.8231	    5.0515	  -28.6493	
  380.0000	2.573E-11	1.977E-11	1.713E+7	8.436E+6	  -20.0415	    8.8231	    5.0626	  -28.6260	
  400.0000	2.508E-11	1.975E-11	1.871E+7	9.319E+6	  -19.9931	    8.7392	    5.0493	  -28.7144	
  420.0000	2.445E-11	1.974E-11	2.051E+7	1.035E+7	  -19.9652	    8.7681	    5.0253	  -28.7444	
  440.0000	2.384E-11	1.973E-11	2.268E+7	1.149E+7	  -19.9423	    8.7866	    5.0171	  -28.7485	
  460.0000	2.326E-11	1.972E-11	2.522E+7	1.277E+7	  -19.9270	    8.7541	    5.0319	  -28.7404	
  480.0000	2.275E-11	1.970E-11	2.826E+7	1.427E+7	  -19.9066	    8.7219	    5.0209	  -28.7870	
  500.0000	2.227E-11	1.970E-11	3.189E+7	1.584E+7	  -19.9117	    8.7086	    5.0225	  -28.7933	
  520.0000	2.190E-11	1.969E-11	3.577E+7	1.761E+7	  -19.9626	    8.6871	    5.0297	  -28.7819	
  540.0000	2.156E-11	1.968E-11	4.034E+7	1.949E+7	  -19.9982	    8.6881	    5.0266	  -28.7993	
  560.0000	2.129E-11	1.968E-11	4.527E+7	2.129E+7	  -20.0262	    8.7322	    5.0127	  -28.7971	
  580.0000	2.107E-11	1.967E-11	5.057E+7	2.309E+7	  -20.0694	    8.6951	    5.0104	  -28.8285	
  600.0000	2.091E-11	1.968E-11	5.539E+7	2.470E+7	  -20.0745	    8.7000	    5.0101	  -28.8256	
  620.0000	2.078E-11	1.969E-11	5.975E+7	2.596E+7	  -20.0720	    8.7391	    5.0380	  -28.7385	
  640.0000	2.067E-11	1.970E-11	6.367E+7	2.682E+7	  -20.0491	    8.7383	    5.0772	  -28.6565	
  660.0000	2.061E-11	1.972E-11	6.515E+7	2.757E+7	  -20.0338	    8.7292	    5.0794	  -28.6584	
  680.0000	2.059E-11	1.974E-11	6.508E+7	2.775E+7	  -20.0160	    8.7622	    5.0743	  -28.6453	
  700.0000	2.063E-11	1.977E-11	6.316E+7	2.740E+7	  -19.9728	    8.7385	    5.0591	  -28.6943	
  720.0000	2.075E-11	1.980E-11	5.969E+7	2.619E+7	  -19.9473	    8.6802	    5.0367	  -28.7836	
  740.0000	2.094E-11	1.984E-11	5.705E+7	2.433E+7	  -19.9397	    8.6950	    5.0319	  -28.7830	
  760.0000	2.116E-11	1.989E-11	5.524E+7	2.206E+7	  -19.9423	    8.6950	    5.0101	  -28.8292	
  780.0000	2.137E-11	1.996E-11	5.340E+7	1.957E+7	  -19.9652	    8.6878	    5.0164	  -28.8210	
  800.0000	2.159E-11	2.005E-11	5.233E+7	1.747E+7	  -19.9753	    8.7089	    5.0285	  -28.7803	
  820.0000	2.177E-11	2.018E-11	5.102E+7	1.559E+7	  -20.0033	    8.7089	    5.0474	  -28.7402	
  840.0000	2.194E-11	2.033E-11	4.992E+7	1.429E+7	  -20.0211	    8.7067	    5.0661	  -28.7026	
  860.0000	2.212E-11	2.048E-11	4.823E+7	1.345E+7	  -20.0313	    8.6759	    5.0648	  -28.7274	
  880.0000	2.220E-11	2.064E-11	4.625E+7	1.280E+7	  -20.0440	    8.7344	    5.0291	  -28.7606	
  900.0000	2.235E-11	2.079E-11	4.444E+7	1.228E+7	  -20.0415	    8.7514	    5.0212	  -28.7651	
  920.0000	2.251E-11	2.095E-11	4.264E+7	1.197E+7	  -20.0465	    8.7165	    5.0000	  -28.8352	
  940.0000	2.269E-11	2.108E-11	4.045E+7	1.165E+7	  -20.0262	    8.7494	    4.9639	  -28.8885	
  960.0000	2.392E-11	2.151E-11	1.361E+7	9.005E+6	  -20.0160	    8.7859	    4.9269	  -28.9417	
  980.0000	2.333E-11	2.151E-11	2.058E+7	9.599E+6	  -20.0033	    8.7487	    4.9013	  -29.0238	
 1000.0000	2.340E-11	2.159E-11	2.201E+7	9.686E+6	  -19.9982	    8.7593	    4.8767	  -29.0698	
