GCD Test
Bias: 5000.000000
CV_37389_012_PSS_HM_XX_DIODEHALF_Annealed_60C_80min
Date/Time: 2/4/2022 1:54:26 PM
Sensor Name: DIODEHALF
Type: P
Annealing Status: Irradiated and Annealed at 60C for 80 minutes
Environment: -20C
Tester: Andrew Kent

Time Delay per Ramp Step (s): 1.000

CV Time Delay per Measurement (s) :0.500

AC Voltage (V): 0.500

Current Number of measurements per voltage: 4.000

IV Time Delay per Measurement (s) :0.000


BiasVoltage	LCR_Cp_freq1000.0	LCR_Cp_freq10000.0	LCR_Rp_freq1000.0	LCR_Rp_freq10000.0	Temperature	Air_Temp	Humidity	Dewpoint	
  -10.0000	3.185E-11	4.186E-12	3.237E+6	2.078E+6	  -20.0033	    9.6128	    3.6341	  -31.5500	
  -20.0000	3.290E-11	4.236E-12	3.599E+6	2.142E+6	  -19.9982	    9.5879	    3.6129	  -31.6279	
  -30.0000	3.295E-11	4.262E-12	3.838E+6	2.200E+6	  -19.9982	    9.6222	    3.5705	  -31.7261	
  -40.0000	3.255E-11	4.295E-12	4.036E+6	2.242E+6	  -19.9957	    9.6145	    3.5595	  -31.7636	
  -50.0000	3.230E-11	4.311E-12	4.208E+6	2.280E+6	  -19.9957	    9.6374	    3.5380	  -31.8104	
  -60.0000	3.214E-11	4.326E-12	4.342E+6	2.303E+6	  -19.9906	    9.6334	    3.5079	  -31.9012	
  -70.0000	3.182E-11	4.338E-12	4.467E+6	2.332E+6	  -19.9906	    9.5684	    3.4937	  -31.9882	
  -80.0000	3.144E-11	4.339E-12	4.564E+6	2.365E+6	  -19.9906	    9.6328	    3.4791	  -31.9866	
  -90.0000	3.149E-11	4.359E-12	4.627E+6	2.358E+6	  -20.0033	    9.5915	    3.4548	  -32.0877	
 -100.0000	3.137E-11	4.377E-12	4.674E+6	2.354E+6	  -19.9982	    9.5049	    3.4573	  -32.1402	
 -110.0000	3.132E-11	4.375E-12	4.734E+6	2.386E+6	  -19.9931	    9.5049	    3.4485	  -32.1666	
 -120.0000	3.129E-11	4.398E-12	4.779E+6	2.378E+6	  -19.9982	    9.5139	    3.4301	  -32.1944	
 -130.0000	3.126E-11	4.397E-12	4.812E+6	2.404E+6	  -19.9931	    9.4451	    3.4133	  -32.3133	
 -140.0000	3.101E-11	4.405E-12	4.854E+6	2.408E+6	  -19.9982	    9.5373	    3.4156	  -32.2428	
 -150.0000	3.095E-11	4.404E-12	4.890E+6	2.428E+6	  -20.0033	    9.4393	    3.4156	  -32.3106	
 -160.0000	3.103E-11	4.423E-12	4.915E+6	2.399E+6	  -20.0033	    9.4479	    3.4247	  -32.2771	
 -170.0000	3.121E-11	4.426E-12	4.933E+6	2.407E+6	  -20.0008	    9.4584	    3.4276	  -32.2613	
 -180.0000	3.099E-11	4.425E-12	4.951E+6	2.417E+6	  -19.9957	    9.4794	    3.4178	  -32.2762	
 -190.0000	3.078E-11	4.426E-12	5.003E+6	2.427E+6	  -19.9880	    9.5557	    3.4067	  -32.2568	
 -200.0000	3.067E-11	4.430E-12	5.014E+6	2.427E+6	  -19.9931	    9.5125	    3.3877	  -32.3442	
 -210.0000	3.063E-11	4.418E-12	5.038E+6	2.469E+6	  -19.9957	    9.4680	    3.3868	  -32.3778	
 -220.0000	3.057E-11	4.431E-12	5.055E+6	2.443E+6	  -20.0084	    9.4670	    3.3811	  -32.3958	
 -230.0000	3.063E-11	4.433E-12	5.060E+6	2.455E+6	  -20.0059	    9.4474	    3.3624	  -32.4661	
 -240.0000	3.047E-11	4.424E-12	5.090E+6	2.480E+6	  -20.0084	    9.4427	    3.3760	  -32.4280	
 -250.0000	3.046E-11	4.438E-12	5.115E+6	2.455E+6	  -20.0084	    9.4996	    3.3659	  -32.4195	
 -260.0000	3.033E-11	4.437E-12	5.130E+6	2.461E+6	  -20.0109	    9.4000	    3.3672	  -32.4845	
 -270.0000	3.012E-11	4.423E-12	5.149E+6	2.502E+6	  -20.0135	    9.4629	    3.3669	  -32.4419	
 -280.0000	3.025E-11	4.431E-12	5.157E+6	2.490E+6	  -20.0186	    9.4256	    3.3482	  -32.5247	
 -290.0000	3.027E-11	4.433E-12	5.165E+6	2.486E+6	  -20.0186	    9.3898	    3.3722	  -32.4760	
 -300.0000	3.042E-11	4.448E-12	5.164E+6	2.456E+6	  -20.0160	    9.3812	    3.3868	  -32.4378	
 -310.0000	3.041E-11	4.434E-12	5.177E+6	2.490E+6	  -20.0135	    9.4046	    3.4051	  -32.3661	
 -320.0000	3.007E-11	4.419E-12	5.207E+6	2.528E+6	  -20.0135	    9.3865	    3.4225	  -32.3263	
 -330.0000	3.006E-11	4.429E-12	5.226E+6	2.511E+6	  -20.0109	    9.4559	    3.4342	  -32.2431	
 -340.0000	2.980E-11	4.424E-12	5.241E+6	2.524E+6	  -20.0135	    9.4643	    3.4405	  -32.2183	
 -350.0000	2.989E-11	4.420E-12	5.263E+6	2.535E+6	  -19.9982	    9.4640	    3.4526	  -32.1826	
 -360.0000	2.963E-11	4.424E-12	5.279E+6	2.532E+6	  -19.9982	    9.4907	    3.4624	  -32.1349	
 -370.0000	2.965E-11	4.418E-12	5.293E+6	2.552E+6	  -20.0008	    9.4812	    3.4690	  -32.1218	
 -380.0000	2.981E-11	4.418E-12	5.298E+6	2.549E+6	  -20.0033	    9.5164	    3.4725	  -32.0871	
 -390.0000	2.964E-11	4.422E-12	5.315E+6	2.545E+6	  -20.0059	    9.4999	    3.4472	  -32.1738	
 -400.0000	2.966E-11	4.422E-12	5.313E+6	2.555E+6	  -20.0084	    9.3955	    3.4421	  -32.2613	
 -410.0000	2.951E-11	4.411E-12	5.329E+6	2.583E+6	  -20.0008	    9.3787	    3.4367	  -32.2890	
 -420.0000	2.950E-11	4.414E-12	5.340E+6	2.580E+6	  -20.0033	    9.3398	    3.4130	  -32.3871	
 -430.0000	2.925E-11	4.410E-12	5.362E+6	2.592E+6	  -20.0008	    9.3637	    3.3982	  -32.4154	
 -440.0000	2.935E-11	4.421E-12	5.371E+6	2.571E+6	  -20.0008	    9.3697	    3.3988	  -32.4094	
 -450.0000	2.957E-11	4.416E-12	5.376E+6	2.587E+6	  -20.0008	    9.4272	    3.4105	  -32.3343	
 -460.0000	2.956E-11	4.412E-12	5.390E+6	2.594E+6	  -19.9957	    9.4490	    3.4190	  -32.2934	
 -470.0000	2.936E-11	4.414E-12	5.409E+6	2.596E+6	  -19.9982	    9.4314	    3.4570	  -32.1920	
 -480.0000	2.906E-11	4.413E-12	5.439E+6	2.604E+6	  -19.9906	    9.4503	    3.4896	  -32.0823	
 -490.0000	2.913E-11	4.413E-12	5.419E+6	2.615E+6	  -19.9982	    9.3899	    3.5019	  -32.0879	
 -500.0000	2.942E-11	4.429E-12	5.426E+6	2.583E+6	  -19.9957	    9.3899	    3.5152	  -32.0488	
 -510.0000	2.932E-11	4.423E-12	5.451E+6	2.598E+6	  -19.9982	    9.3842	    3.5060	  -32.0797	
 -520.0000	2.895E-11	4.407E-12	5.467E+6	2.638E+6	  -19.9906	    9.3480	    3.4905	  -32.1504	
 -530.0000	2.913E-11	4.410E-12	5.474E+6	2.635E+6	  -20.0008	    9.4515	    3.4785	  -32.1142	
 -540.0000	2.914E-11	4.420E-12	5.458E+6	2.613E+6	  -20.0008	    9.4399	    3.4668	  -32.1570	
 -550.0000	2.906E-11	4.411E-12	5.495E+6	2.637E+6	  -20.0033	    9.4169	    3.4614	  -32.1889	
 -560.0000	2.912E-11	4.415E-12	5.493E+6	2.634E+6	  -19.9982	    9.4103	    3.4554	  -32.2114	
 -570.0000	2.892E-11	4.415E-12	5.513E+6	2.645E+6	  -19.9982	    9.3784	    3.4494	  -32.2514	
 -580.0000	2.910E-11	4.422E-12	5.490E+6	2.627E+6	  -20.0033	    9.3611	    3.4320	  -32.3154	
 -590.0000	2.910E-11	4.421E-12	5.515E+6	2.623E+6	  -20.0059	    9.3976	    3.4342	  -32.2835	
 -600.0000	2.911E-11	4.411E-12	5.525E+6	2.659E+6	  -20.0059	    9.3976	    3.4390	  -32.2693	
 -610.0000	2.894E-11	4.411E-12	5.515E+6	2.666E+6	  -20.0033	    9.3524	    3.4298	  -32.3280	
 -620.0000	2.885E-11	4.419E-12	5.539E+6	2.641E+6	  -20.0033	    9.3446	    3.4428	  -32.2946	
 -630.0000	2.901E-11	4.417E-12	5.533E+6	2.649E+6	  -19.9982	    9.3988	    3.4386	  -32.2694	
 -640.0000	2.890E-11	4.424E-12	5.551E+6	2.650E+6	  -19.9957	    9.4173	    3.4434	  -32.2424	
 -650.0000	2.884E-11	4.413E-12	5.554E+6	2.669E+6	  -19.9982	    9.3301	    3.4361	  -32.3246	
 -660.0000	2.893E-11	4.422E-12	5.558E+6	2.648E+6	  -19.9880	    9.3033	    3.4333	  -32.3516	
 -670.0000	2.912E-11	4.422E-12	5.559E+6	2.654E+6	  -19.9931	    9.3374	    3.4418	  -32.3024	
 -680.0000	2.893E-11	4.425E-12	5.582E+6	2.650E+6	  -19.9906	    9.3693	    3.4386	  -32.2898	
 -690.0000	2.897E-11	4.418E-12	5.558E+6	2.660E+6	  -19.9931	    9.3411	    3.4149	  -32.3805	
 -700.0000	2.884E-11	4.426E-12	5.567E+6	2.644E+6	  -20.0033	    9.3736	    3.4228	  -32.3342	
 -710.0000	2.888E-11	4.422E-12	5.592E+6	2.657E+6	  -19.9982	    9.2986	    3.3991	  -32.4576	
 -720.0000	2.857E-11	4.423E-12	5.608E+6	2.665E+6	  -20.0033	    9.2680	    3.4026	  -32.4683	
 -730.0000	2.867E-11	4.414E-12	5.599E+6	2.685E+6	  -20.0033	    9.2680	    3.4032	  -32.4664	
 -740.0000	2.855E-11	4.421E-12	5.619E+6	2.668E+6	  -19.9957	    9.3033	    3.4077	  -32.4286	
 -750.0000	2.859E-11	4.415E-12	5.612E+6	2.680E+6	  -19.9931	    9.3525	    3.3985	  -32.4222	
 -760.0000	2.889E-11	4.425E-12	5.600E+6	2.662E+6	  -19.9982	    9.2670	    3.3966	  -32.4871	
 -770.0000	2.883E-11	4.419E-12	5.611E+6	2.676E+6	  -19.9982	    9.2457	    3.3934	  -32.5114	
 -780.0000	2.859E-11	4.420E-12	5.617E+6	2.679E+6	  -19.9982	    9.2423	    3.3767	  -32.5646	
 -790.0000	2.849E-11	4.413E-12	5.623E+6	2.691E+6	  -19.9957	    9.2440	    3.3760	  -32.5653	
 -800.0000	2.838E-11	4.405E-12	5.646E+6	2.702E+6	  -20.0033	    9.1925	    3.3700	  -32.6192	
 -810.0000	2.848E-11	4.417E-12	5.652E+6	2.683E+6	  -20.0033	    9.1861	    3.3485	  -32.6892	
 -820.0000	2.869E-11	4.420E-12	5.631E+6	2.677E+6	  -20.0033	    9.2022	    3.3441	  -32.6917	
 -830.0000	2.849E-11	4.409E-12	5.650E+6	2.698E+6	  -20.0135	    9.3174	    3.3270	  -32.6646	
 -840.0000	2.870E-11	4.417E-12	5.647E+6	2.677E+6	  -20.0186	    9.2704	    3.3444	  -32.6436	
 -850.0000	2.843E-11	4.406E-12	5.663E+6	2.703E+6	  -20.0160	    9.2249	    3.3438	  -32.6769	
 -860.0000	2.863E-11	4.406E-12	5.648E+6	2.703E+6	  -20.0160	    9.2819	    3.3476	  -32.6259	
 -870.0000	2.863E-11	4.423E-12	5.636E+6	2.664E+6	  -20.0109	    9.2703	    3.3466	  -32.6368	
 -880.0000	2.869E-11	4.421E-12	5.655E+6	2.677E+6	  -20.0059	    9.1944	    3.3580	  -32.6545	
 -890.0000	2.844E-11	4.411E-12	5.682E+6	2.702E+6	  -20.0109	    9.1944	    3.3577	  -32.6555	
 -900.0000	2.868E-11	4.420E-12	5.658E+6	2.668E+6	  -20.0059	    9.2658	    3.3605	  -32.5974	
 -910.0000	2.871E-11	4.408E-12	5.639E+6	2.694E+6	  -20.0033	    9.1804	    3.3631	  -32.6488	
 -920.0000	2.871E-11	4.423E-12	5.647E+6	2.666E+6	  -20.0033	    9.2173	    3.3700	  -32.6020	
 -930.0000	2.846E-11	4.409E-12	5.651E+6	2.698E+6	  -20.0008	    9.2082	    3.3507	  -32.6672	
 -940.0000	2.864E-11	4.417E-12	5.652E+6	2.680E+6	  -20.0059	    9.2147	    3.2995	  -32.8205	
 -950.0000	2.871E-11	4.427E-12	5.651E+6	2.642E+6	  -20.0008	    9.2157	    3.2777	  -32.8877	
 -960.0000	2.876E-11	4.414E-12	5.633E+6	2.687E+6	  -20.0033	    9.1816	    3.2777	  -32.9112	
 -970.0000	2.871E-11	4.417E-12	5.666E+6	2.675E+6	  -20.0008	    9.1806	    3.2660	  -32.9485	
 -980.0000	2.883E-11	4.418E-12	5.658E+6	2.679E+6	  -20.0033	    9.2084	    3.2536	  -32.9680	
 -990.0000	2.874E-11	4.417E-12	5.651E+6	2.678E+6	  -20.0033	    9.2714	    3.2489	  -32.9395	
-1000.0000	2.849E-11	4.416E-12	5.664E+6	2.675E+6	  -20.0008	    9.2905	    3.2135	  -33.0383	
