GCD Test
Bias: 5000.000000
CV_D0_CO138_LargeDiode_GRConnected_Irradiated_20min_at_60C
Date/Time: 7/30/2021 3:11:28 PM
Sensor Name: CO138
Type: N
Annealing Status: Irradiated, Annealed at 60C for 20 Minutes
Environment: RT
Tester: Andrew Kent

Time Delay per Ramp Step (s): 0.500

CV Time Delay per Measurement (s) :0.500

AC Voltage (V): 0.500

Current Number of measurements per voltage: 4.000

IV Time Delay per Measurement (s) :0.000


BiasVoltage	LCR_Cp_freq1000.0	LCR_Cp_freq10000.0	LCR_Rp_freq1000.0	LCR_Rp_freq10000.0	Temperature	Air_Temp	Humidity	Dewpoint	
    1.0000	3.687E-11	2.019E-11	1.747E+6	1.470E+6	  -20.1788	    7.6300	    9.7037	  -22.3770	
    2.0000	4.067E-11	2.022E-11	1.872E+6	1.544E+6	  -20.1915	    7.6300	    9.6996	  -22.3818	
    3.0000	4.206E-11	2.022E-11	2.012E+6	1.602E+6	  -20.2042	    7.5990	    9.7018	  -22.4031	
    4.0000	4.336E-11	2.023E-11	2.095E+6	1.618E+6	  -20.1864	    7.5990	    9.7071	  -22.3968	
    5.0000	4.423E-11	2.021E-11	2.173E+6	1.655E+6	  -20.1381	    7.5116	    9.6932	  -22.4805	
    6.0000	4.458E-11	2.020E-11	2.257E+6	1.690E+6	  -20.1127	    7.4813	    9.6828	  -22.5159	
    7.0000	4.547E-11	2.020E-11	2.302E+6	1.704E+6	  -20.0720	    7.5303	    9.6531	  -22.5129	
    8.0000	4.579E-11	2.019E-11	2.371E+6	1.721E+6	  -19.9702	    7.4954	    9.6113	  -22.5886	
    9.0000	4.603E-11	2.018E-11	2.441E+6	1.754E+6	  -19.9448	    7.4321	    9.5939	  -22.6578	
   10.0000	4.621E-11	2.017E-11	2.505E+6	1.779E+6	  -19.9295	    7.5473	    9.5655	  -22.6026	
   20.0000	4.623E-11	1.994E-11	3.060E+6	2.023E+6	  -19.9423	    7.5252	    9.5187	  -22.6749	
   30.0000	4.524E-11	1.979E-11	3.548E+6	2.171E+6	  -19.9270	    7.4477	    9.5104	  -22.7443	
   40.0000	4.407E-11	1.970E-11	3.993E+6	2.303E+6	  -19.9448	    7.4477	    9.4858	  -22.7735	
   50.0000	4.283E-11	1.963E-11	4.410E+6	2.441E+6	  -19.9728	    7.4004	    9.4662	  -22.8332	
   60.0000	4.161E-11	1.958E-11	4.813E+6	2.531E+6	  -20.0033	    7.3996	    9.4494	  -22.8538	
   70.0000	4.062E-11	1.954E-11	5.188E+6	2.645E+6	  -20.0059	    7.4190	    9.4428	  -22.8467	
   80.0000	3.973E-11	1.950E-11	5.548E+6	2.744E+6	  -20.0237	    7.4367	    9.4386	  -22.8380	
   90.0000	3.892E-11	1.947E-11	5.886E+6	2.838E+6	  -20.0542	    7.4309	    9.4526	  -22.8259	
  100.0000	3.810E-11	1.944E-11	6.230E+6	2.921E+6	  -20.0644	    7.4535	    9.4431	  -22.8198	
  120.0000	3.672E-11	1.940E-11	6.897E+6	3.119E+6	  -20.0567	    7.4033	    9.4409	  -22.8611	
  140.0000	3.547E-11	1.933E-11	7.537E+6	3.341E+6	  -20.0211	    7.4198	    9.4453	  -22.8431	
  160.0000	3.438E-11	1.927E-11	8.168E+6	3.546E+6	  -20.0237	    7.3498	    9.4409	  -22.9023	
  180.0000	3.350E-11	1.922E-11	8.769E+6	3.770E+6	  -20.0186	    7.3832	    9.4374	  -22.8807	
  200.0000	3.251E-11	1.915E-11	9.419E+6	4.074E+6	  -19.9855	    7.3226	    9.4301	  -22.9360	
  220.0000	3.162E-11	1.910E-11	1.007E+7	4.325E+6	  -19.9779	    7.3917	    9.4247	  -22.8893	
  240.0000	3.078E-11	1.903E-11	1.074E+7	4.679E+6	  -19.9728	    7.3917	    9.4285	  -22.8847	
  260.0000	2.984E-11	1.896E-11	1.150E+7	5.074E+6	  -19.9702	    7.2546	    9.4190	  -23.0015	
  280.0000	2.897E-11	1.891E-11	1.232E+7	5.499E+6	  -19.9677	    7.3032	    9.4058	  -22.9800	
  300.0000	2.808E-11	1.884E-11	1.325E+7	6.056E+6	  -19.9753	    7.3032	    9.3997	  -22.9871	
  320.0000	2.724E-11	1.879E-11	1.428E+7	6.697E+6	  -19.9906	    7.2735	    9.4096	  -22.9982	
  340.0000	2.638E-11	1.874E-11	1.559E+7	7.458E+6	  -19.9982	    7.3066	    9.4080	  -22.9747	
  360.0000	2.552E-11	1.869E-11	1.709E+7	8.362E+6	  -20.0109	    7.3322	    9.4127	  -22.9493	
  380.0000	2.476E-11	1.864E-11	1.883E+7	9.519E+6	  -20.0237	    7.3091	    9.4156	  -22.9637	
  400.0000	2.395E-11	1.861E-11	2.104E+7	1.095E+7	  -20.0262	    7.1991	    9.4086	  -23.0566	
  420.0000	2.328E-11	1.858E-11	2.361E+7	1.271E+7	  -20.0211	    7.1851	    9.4114	  -23.0640	
  440.0000	2.257E-11	1.855E-11	2.695E+7	1.492E+7	  -20.0059	    7.1583	    9.4133	  -23.0823	
  460.0000	2.192E-11	1.853E-11	3.137E+7	1.775E+7	  -20.0160	    7.1891	    9.4108	  -23.0617	
  480.0000	2.134E-11	1.851E-11	3.734E+7	2.092E+7	  -20.0135	    7.2500	    9.4086	  -23.0175	
  500.0000	2.079E-11	1.849E-11	4.510E+7	2.536E+7	  -20.0135	    7.1517	    9.4067	  -23.0954	
  520.0000	2.034E-11	1.847E-11	5.548E+7	3.147E+7	  -20.0059	    7.1271	    9.3855	  -23.1396	
  540.0000	1.986E-11	1.844E-11	6.819E+7	4.014E+7	  -20.0008	    7.0860	    9.3858	  -23.1708	
  560.0000	1.954E-11	1.842E-11	8.580E+7	5.103E+7	  -19.9830	    7.1638	    9.3662	  -23.1344	
  580.0000	1.927E-11	1.840E-11	1.084E+8	6.722E+7	  -19.9804	    7.1965	    9.3520	  -23.1263	
  600.0000	1.905E-11	1.977E-11	1.358E+8	2.423E+7	  -19.9880	    7.1769	    9.3472	  -23.1471	
  620.0000	2.105E-11	1.982E-11	4.771E+7	2.236E+7	  -19.9830	    7.1053	    9.3485	  -23.2007	
  640.0000	2.088E-11	1.984E-11	4.684E+7	2.304E+7	  -20.0008	    7.1182	    9.3393	  -23.2017	
  660.0000	2.093E-11	1.988E-11	4.411E+7	2.238E+7	  -20.0008	    7.1042	    9.3333	  -23.2197	
  680.0000	2.113E-11	1.992E-11	4.062E+7	2.056E+7	  -20.0109	    7.1250	    9.3213	  -23.2182	
  700.0000	2.133E-11	1.996E-11	3.923E+7	1.917E+7	  -20.0160	    7.1322	    9.3159	  -23.2191	
  720.0000	2.149E-11	2.001E-11	3.923E+7	1.788E+7	  -20.0186	    7.1787	    9.3011	  -23.2013	
  740.0000	2.164E-11	2.009E-11	3.945E+7	1.647E+7	  -20.0211	    7.1349	    9.2960	  -23.2410	
  760.0000	2.179E-11	2.020E-11	3.839E+7	1.506E+7	  -19.9982	    7.1170	    9.2922	  -23.2594	
  780.0000	2.193E-11	2.035E-11	3.771E+7	1.391E+7	  -19.9779	    7.0704	    9.2830	  -23.3062	
  800.0000	2.208E-11	2.067E-11	3.661E+7	1.232E+7	  -19.9982	    7.0418	    9.2710	  -23.3427	
  820.0000	2.260E-11	2.088E-11	2.859E+7	1.167E+7	  -20.0033	    7.0792	    9.2843	  -23.2979	
  840.0000	2.191E-11	2.041E-11	4.513E+7	1.416E+7	  -20.0109	    7.1091	    9.2919	  -23.2658	
  860.0000	2.203E-11	2.055E-11	4.444E+7	1.348E+7	  -20.0186	    7.0640	    9.6622	  -22.8618	
  880.0000	1.989E-11	2.072E-11	3.444E+7	1.308E+7	  -20.0160	    7.0640	    9.3650	  -23.2127	
  900.0000	2.220E-11	2.084E-11	1.920E+7	1.254E+7	  -20.0313	    7.0850	    9.3090	  -23.2638	
  920.0000	2.419E-11	2.103E-11	1.996E+7	1.209E+7	  -19.9982	    7.1202	    9.3071	  -23.2390	
  940.0000	1.841E-11	1.851E-11	3.674E+8	-7.534E+7	  -19.9982	    7.0096	    9.3036	  -23.3281	
  960.0000	1.831E-11	1.842E-11	3.062E+8	-9.374E+7	  -19.9906	    7.0043	    9.3049	  -23.3307	
  980.0000	1.830E-11	1.843E-11	3.263E+8	-8.660E+7	  -19.9677	    7.0352	    9.3068	  -23.3047	
 1000.0000	1.829E-11	1.840E-11	3.037E+8	-9.361E+7	  -19.9779	    7.0114	    9.3134	  -23.3150	
 1020.0000	1.829E-11	1.843E-11	3.127E+8	-8.411E+7	    0.0000	    0.0000	    0.0000	    0.0000	
